# STATUS =
# OBJECT = 2015bn
# TELESCOPE = UH88
# INSTRUMENT = SNIFS
# DATE-OBS = 2015-06-21 00:00:00.00
# MJD = 57194.0
# EXPTIME = 1800
# AIRMASS = --
# SLIT = 0.0
# DISPERSER = --
# SOURCE = 2016ApJ...826...39N
# FILTER =
# RESOLUTION =
# FLUX_STANDARD =
# EXTINCTION_CORRECTED = --
# PHOTOMETRY_CALIBRATED =
# TELLURIC_CORRECTED =
# FLUX_UNITS = Other
# WAVE_UNITS = Angstrom
# QUALITY = High
# MIN_WAVE = 3301.06
# MAX_WAVE = 9701.23
# COMMENT = [Data obtained from:Nicholl, M.] [Prev. spec info - createdby: ilanm-UploadSet; modifiedby: ilanm-UploadSet]
       Wavelength          Flux 
          3303.44  1.446444e-16 
          3305.82   1.02055e-16 
           3308.2  8.912862e-17 
         3310.581  9.466072e-17 
         3312.961   1.02324e-16 
         3315.341  7.806492e-17 
         3317.721  8.774662e-17 
         3320.101  1.509209e-16 
         3322.481  1.482078e-16 
         3324.861  1.430139e-16 
         3327.241  1.056972e-16 
         3329.622  9.484561e-17 
         3332.002  2.417629e-16 
         3334.382  1.445417e-16 
         3336.762  1.111513e-16 
         3339.142   8.82553e-17 
         3341.522  1.039981e-16 
         3343.902  1.317836e-16 
         3346.282  7.440664e-17 
         3348.663  4.614417e-17 
         3351.043  1.866316e-16 
         3353.423  1.052123e-16 
         3355.803  1.020711e-16 
         3358.183  1.598567e-17 
         3360.563  4.725071e-17 
         3362.943  1.280267e-16 
         3365.323  1.171715e-16 
         3367.704  5.409624e-17 
         3370.084   1.74198e-17 
         3372.464  7.372636e-17 
         3374.844  2.920886e-17 
         3377.224  4.396263e-17 
         3379.604  9.742519e-17 
         3381.984  1.779648e-16 
         3384.365  1.636575e-16 
         3386.745  1.520953e-16 
         3389.125  2.134345e-16 
         3391.505  1.489032e-16 
         3393.885  9.807155e-17 
         3396.265   6.65078e-17 
         3398.646  2.398769e-17 
         3401.026  2.332342e-17 
         3403.406  8.307239e-17 
         3405.786   1.27334e-16 
         3408.166  2.391897e-16 
         3410.546  1.921179e-16 
         3412.926  1.355056e-16 
         3415.306  1.104143e-16 
         3417.687  6.473205e-17 
         3420.067  8.610079e-17 
         3422.447   1.45978e-16 
         3424.827  9.371623e-17 
         3427.207  1.207231e-16 
         3429.587  9.228112e-17 
         3431.967  1.008791e-16 
         3434.347  1.762732e-16 
         3436.728  1.469545e-16 
         3439.108   1.08113e-16 
         3441.488  6.226897e-17 
         3443.868  7.330363e-17 
         3446.248  1.209607e-16 
         3448.628  5.204099e-17 
         3451.008    8.8605e-17 
         3453.388  1.261315e-16 
         3455.769   1.49412e-16 
         3458.149  9.883739e-17 
         3460.529  9.535962e-17 
         3462.909  1.202359e-16 
         3465.289  1.179954e-16 
         3467.669  9.806664e-17 
         3470.049  9.415503e-17 
         3472.429  8.961407e-17 
          3474.81  1.476399e-16 
          3477.19  1.611759e-16 
          3479.57  1.296352e-16 
          3481.95  7.367501e-17 
          3484.33  4.164801e-17 
          3486.71  5.749398e-17 
          3489.09  9.858068e-17 
          3491.47  1.288798e-16 
         3493.851  1.618452e-16 
         3496.231   1.72311e-16 
         3498.611  1.647238e-16 
         3500.991  2.146576e-16 
         3503.371  1.990176e-16 
         3505.751  1.725531e-16 
         3508.131   1.19141e-16 
         3510.511  1.500378e-16 
         3512.892  1.881121e-16 
         3515.272  1.499939e-16 
         3517.652  1.249977e-16 
         3520.032  1.591648e-16 
         3522.412  1.593767e-16 
         3524.792   1.20702e-16 
         3527.172  1.626913e-16 
         3529.552  2.166906e-16 
         3531.933  1.825507e-16 
         3534.313  1.805916e-16 
         3536.693   1.71162e-16 
         3539.073  1.819016e-16 
         3541.453  1.543024e-16 
         3543.833   1.39841e-16 
         3546.213   1.33995e-16 
         3548.594  1.196361e-16 
         3550.974  1.544761e-16 
         3553.354  1.639301e-16 
         3555.734  1.511122e-16 
         3558.114  1.573921e-16 
         3560.494  1.919332e-16 
         3562.875   2.07622e-16 
         3565.255   1.73656e-16 
         3567.635  1.883157e-16 
         3570.015   1.80724e-16 
         3572.395  1.545214e-16 
         3574.775  1.649689e-16 
         3577.155  1.702071e-16 
         3579.535  1.711659e-16 
         3581.916  1.585446e-16 
         3584.296  1.806223e-16 
         3586.676   1.56718e-16 
         3589.056  1.671162e-16 
         3591.436  1.399591e-16 
         3593.816  1.542556e-16 
         3596.196  1.840798e-16 
         3598.576  1.988002e-16 
         3600.957  1.734884e-16 
         3603.337  1.645435e-16 
         3605.717   1.59697e-16 
         3608.097  1.274924e-16 
         3610.477   1.78648e-16 
         3612.857  1.934851e-16 
         3615.237  1.416859e-16 
         3617.617  1.287564e-16 
         3619.998  1.267046e-16 
         3622.378  1.698502e-16 
         3624.758  1.617114e-16 
         3627.138  1.331149e-16 
         3629.518  1.305733e-16 
         3631.898  1.516483e-16 
         3634.278  1.731359e-16 
         3636.658  1.644787e-16 
         3639.039  1.929917e-16 
         3641.419  1.998901e-16 
         3643.799  1.757254e-16 
         3646.179  1.434385e-16 
         3648.559   1.58108e-16 
         3650.939  1.504274e-16 
         3653.319  1.369161e-16 
         3655.699  1.364334e-16 
          3658.08  1.267916e-16 
          3660.46  1.331821e-16 
          3662.84  1.449045e-16 
          3665.22  1.678491e-16 
           3667.6   1.63093e-16 
          3669.98  1.555701e-16 
          3672.36   1.67899e-16 
          3674.74  1.522708e-16 
         3677.121  1.785658e-16 
         3679.501  1.860032e-16 
         3681.881   1.66746e-16 
         3684.261  1.579839e-16 
         3686.641  1.659476e-16 
         3689.021  1.732183e-16 
         3691.401  1.629145e-16 
         3693.781   1.68518e-16 
         3696.162  1.497315e-16 
         3698.542  1.728571e-16 
         3700.922  2.019723e-16 
         3703.302  1.921505e-16 
         3705.682  1.781235e-16 
         3708.062  1.868774e-16 
         3710.442  1.833498e-16 
         3712.823  2.125404e-16 
         3715.203  1.940863e-16 
         3717.583  1.573688e-16 
         3719.963  1.364902e-16 
         3722.343  1.504475e-16 
         3724.723  1.759757e-16 
         3727.103   1.74005e-16 
         3729.483  1.779075e-16 
         3731.864  1.660373e-16 
         3734.244  1.843221e-16 
         3736.624  2.119658e-16 
         3739.004  2.351089e-16 
         3741.384  2.249545e-16 
         3743.764  1.617225e-16 
         3746.145  1.699088e-16 
         3748.525  2.098503e-16 
         3750.905  2.030641e-16 
         3753.285  1.991665e-16 
         3755.665  1.869151e-16 
         3758.045  1.735797e-16 
         3760.425  1.618692e-16 
         3762.805  1.545436e-16 
         3765.186   1.39164e-16 
         3767.566  1.720667e-16 
         3769.946  2.103093e-16 
         3772.326  2.258241e-16 
         3774.706  2.062301e-16 
         3777.086  2.052661e-16 
         3779.466  1.825542e-16 
         3781.846   1.84943e-16 
         3784.227  2.092534e-16 
         3786.607  2.176616e-16 
         3788.987  2.235159e-16 
         3791.367  2.161203e-16 
         3793.747    1.8973e-16 
         3796.127  1.851599e-16 
         3798.507  1.784821e-16 
         3800.887  2.014292e-16 
         3803.268  2.348885e-16 
         3805.648  2.112579e-16 
         3808.028  2.007139e-16 
         3810.408   2.17197e-16 
         3812.788  2.116813e-16 
         3815.168  2.106429e-16 
         3817.548  2.053762e-16 
         3819.928  2.064319e-16 
         3822.309  1.928681e-16 
         3824.689  2.063619e-16 
         3827.069  2.098608e-16 
         3829.449  2.023587e-16 
         3831.829  2.023429e-16 
         3834.209   2.11204e-16 
         3836.589  1.919787e-16 
         3838.969  1.757284e-16 
          3841.35  1.847873e-16 
          3843.73  1.968185e-16 
          3846.11  1.792845e-16 
          3848.49  1.727073e-16 
          3850.87  1.924933e-16 
          3853.25  2.035566e-16 
          3855.63  2.069657e-16 
          3858.01  2.064028e-16 
         3860.391  1.962117e-16 
         3862.771    1.9142e-16 
         3865.151  2.087365e-16 
         3867.531  2.190528e-16 
         3869.911  2.105961e-16 
         3872.291  1.885516e-16 
         3874.671  1.768553e-16 
         3877.052  1.908728e-16 
         3879.432  2.213046e-16 
         3881.812  2.112392e-16 
         3884.192  1.938795e-16 
         3886.572  1.852222e-16 
         3888.952  1.969054e-16 
         3891.332  1.851213e-16 
         3893.712  1.814625e-16 
         3896.093   1.81726e-16 
         3898.473  2.038679e-16 
         3900.853   2.11077e-16 
         3903.233  2.193998e-16 
         3905.613  1.993688e-16 
         3907.993  2.165654e-16 
         3910.374   2.11206e-16 
         3912.754  2.164392e-16 
         3915.134  2.361505e-16 
         3917.514  2.232479e-16 
         3919.894  2.127462e-16 
         3922.274  2.204756e-16 
         3924.654  2.249232e-16 
         3927.034  2.173645e-16 
         3929.415   2.21339e-16 
         3931.795  2.167454e-16 
         3934.175  1.987636e-16 
         3936.555  2.140244e-16 
         3938.935  2.538192e-16 
         3941.315    2.4215e-16 
         3943.695  2.243846e-16 
         3946.075  2.099068e-16 
         3948.456  2.337528e-16 
         3950.836  2.532224e-16 
         3953.216  2.357616e-16 
         3955.596  2.139007e-16 
         3957.976  1.972705e-16 
         3960.356   2.06577e-16 
         3962.736  2.173594e-16 
         3965.116  2.229617e-16 
         3967.497   2.30689e-16 
         3969.877  2.050634e-16 
         3972.257  1.848601e-16 
         3974.637  1.724465e-16 
         3977.017  1.476387e-16 
         3979.397  1.676679e-16 
         3981.777  1.701831e-16 
         3984.157  2.008818e-16 
         3986.538  2.217248e-16 
         3988.918  1.984888e-16 
         3991.298  1.907803e-16 
         3993.678  2.272813e-16 
         3996.058  2.337497e-16 
         3998.438  2.439722e-16 
         4000.818  2.545755e-16 
         4003.198  2.375303e-16 
         4005.579   2.21406e-16 
         4007.959  2.223328e-16 
         4010.339  2.563078e-16 
         4012.719  2.446172e-16 
         4015.099  2.127499e-16 
         4017.479  2.191368e-16 
         4019.859  2.133157e-16 
          4022.24  2.090995e-16 
          4024.62  2.024122e-16 
           4027.0  2.152186e-16 
          4029.38  2.058669e-16 
          4031.76  2.032367e-16 
          4034.14  2.144973e-16 
          4036.52  1.947207e-16 
           4038.9    1.9651e-16 
         4041.281  2.021871e-16 
         4043.661  2.152485e-16 
         4046.041  1.941921e-16 
         4048.421  1.854934e-16 
         4050.801  1.910181e-16 
         4053.181  1.863498e-16 
         4055.561  2.070203e-16 
         4057.941   2.02051e-16 
         4060.322  1.981423e-16 
         4062.702  1.767621e-16 
         4065.082  1.826851e-16 
         4067.462   1.86446e-16 
         4069.842  1.735259e-16 
         4072.222  2.035213e-16 
         4074.602  2.047735e-16 
         4076.982  1.836072e-16 
         4079.363  1.722614e-16 
         4081.743  1.662667e-16 
         4084.123  1.956738e-16 
         4086.503     2.133e-16 
         4088.883  2.127487e-16 
         4091.263  1.943592e-16 
         4093.644  1.742327e-16 
         4096.023   1.91409e-16 
         4098.404  2.381169e-16 
         4100.784  2.420991e-16 
         4103.164  2.284909e-16 
         4105.544  2.036183e-16 
         4107.924  2.017538e-16 
         4110.304  2.222082e-16 
         4112.685  2.530749e-16 
         4115.064  2.361488e-16 
         4117.445  2.292216e-16 
         4119.825  2.657313e-16 
         4122.205  2.623939e-16 
         4124.585  2.404135e-16 
         4126.965  2.397011e-16 
         4129.345  2.503763e-16 
         4131.726  2.278818e-16 
         4134.105  2.615298e-16 
         4136.486  2.652849e-16 
         4138.866  2.419304e-16 
         4141.246  2.267708e-16 
         4143.626  2.282987e-16 
         4146.006  2.379143e-16 
         4148.386  2.582528e-16 
         4150.767  2.744701e-16 
         4153.146  2.795124e-16 
         4155.527  2.616698e-16 
         4157.907  2.405083e-16 
         4160.287  2.215426e-16 
         4162.667    2.1144e-16 
         4165.047  2.333221e-16 
         4167.428  2.260466e-16 
         4169.808  2.256636e-16 
         4172.188  2.383459e-16 
         4174.568  2.266676e-16 
         4176.948   2.25455e-16 
         4179.328  2.286135e-16 
         4181.708  2.290229e-16 
         4184.088  2.057183e-16 
         4186.469  2.082607e-16 
         4188.849  2.282804e-16 
         4191.229  2.475843e-16 
         4193.609  2.100801e-16 
         4195.989  1.928324e-16 
         4198.369   1.96475e-16 
          4200.75  2.079515e-16 
         4203.129  1.917612e-16 
          4205.51  1.861204e-16 
          4207.89  1.895707e-16 
          4210.27   2.02651e-16 
          4212.65  2.084929e-16 
          4215.03  2.049783e-16 
          4217.41  2.013458e-16 
         4219.791  2.008114e-16 
          4222.17  1.813575e-16 
         4224.551  1.878394e-16 
         4226.931  2.084095e-16 
         4229.311  2.113662e-16 
         4231.691  1.981133e-16 
         4234.071  1.970917e-16 
         4236.451  2.031677e-16 
         4238.832  2.058073e-16 
         4241.211  2.233757e-16 
         4243.592  2.143622e-16 
         4245.972  2.224547e-16 
         4248.352  2.080111e-16 
         4250.732  2.073102e-16 
         4253.112  2.279089e-16 
         4255.492  2.396857e-16 
         4257.873  2.336568e-16 
         4260.252  2.291226e-16 
         4262.633  2.055577e-16 
         4265.013  2.078767e-16 
         4267.393  2.177926e-16 
         4269.773  2.250217e-16 
         4272.153  2.028209e-16 
         4274.533  1.916371e-16 
         4276.914  2.133455e-16 
         4279.293  2.494594e-16 
         4281.674  2.467346e-16 
         4284.054   2.19672e-16 
         4286.434  2.366645e-16 
         4288.814  2.377031e-16 
         4291.194  2.356771e-16 
         4293.574  2.444427e-16 
         4295.955  2.333196e-16 
         4298.334   2.23604e-16 
         4300.715  2.364077e-16 
         4303.095  2.358905e-16 
         4305.475  2.398763e-16 
         4307.855   2.44039e-16 
         4310.235  2.436398e-16 
         4312.615   2.47778e-16 
         4314.996  2.398843e-16 
         4317.375  2.376579e-16 
         4319.756   2.51767e-16 
         4322.136  2.622984e-16 
         4324.516  2.410382e-16 
         4326.896  2.211411e-16 
         4329.276  2.458923e-16 
         4331.656  2.423207e-16 
         4334.037  2.251541e-16 
         4336.417  2.296936e-16 
         4338.797  2.561504e-16 
         4341.177  2.392909e-16 
         4343.557  2.326548e-16 
         4345.937   2.41232e-16 
         4348.317   2.31066e-16 
         4350.698   1.96378e-16 
         4353.078  2.028836e-16 
         4355.458  2.297981e-16 
         4357.838  2.363781e-16 
         4360.218  2.610329e-16 
         4362.598  2.496369e-16 
         4364.979  2.450727e-16 
         4367.358  2.387855e-16 
         4369.739  2.357628e-16 
         4372.119  2.583912e-16 
         4374.499  2.724359e-16 
         4376.879  2.625167e-16 
         4379.259  2.397209e-16 
         4381.639  2.360929e-16 
          4384.02  2.388914e-16 
         4386.399  2.433299e-16 
          4388.78  2.492736e-16 
          4391.16  2.533288e-16 
          4393.54  2.659215e-16 
          4395.92  2.706676e-16 
           4398.3  2.750856e-16 
          4400.68  2.835951e-16 
         4403.061  2.806101e-16 
          4405.44  2.704361e-16 
         4407.821  2.801873e-16 
         4410.201  2.928875e-16 
         4412.581  2.835637e-16 
         4414.961  2.688121e-16 
         4417.341  2.625085e-16 
         4419.721  2.566242e-16 
         4422.102  2.437989e-16 
         4424.481  2.521653e-16 
         4426.862  2.733004e-16 
         4429.242  2.819481e-16 
         4431.622  2.766155e-16 
         4434.002  2.755149e-16 
         4436.382  2.765658e-16 
         4438.762  2.641322e-16 
         4441.143  2.472161e-16 
         4443.522  2.438971e-16 
         4445.903  2.510148e-16 
         4448.283  2.718481e-16 
         4450.663  2.743712e-16 
         4453.043  2.621973e-16 
         4455.423  2.481358e-16 
         4457.803  2.346899e-16 
         4460.184  2.261512e-16 
         4462.563  2.208084e-16 
         4464.944  2.379308e-16 
         4467.324  2.466857e-16 
         4469.704  2.355622e-16 
         4472.084  2.196307e-16 
         4474.464  2.260987e-16 
         4476.844  2.268115e-16 
         4479.225  2.305972e-16 
         4481.604  2.413243e-16 
         4483.985  2.388018e-16 
         4486.365  2.086655e-16 
         4488.745  2.084476e-16 
         4491.125  2.267327e-16 
         4493.505  2.342228e-16 
         4495.885  2.327265e-16 
         4498.266  2.321059e-16 
         4500.646  2.313396e-16 
         4503.026  2.425254e-16 
         4505.406  2.393939e-16 
         4507.786   2.29771e-16 
         4510.166  2.304017e-16 
         4512.546  2.185927e-16 
         4514.927  2.054257e-16 
         4517.307  1.942999e-16 
         4519.687  1.957613e-16 
         4522.067  2.123431e-16 
         4524.447  2.337805e-16 
         4526.827  2.129293e-16 
         4529.208  2.094045e-16 
         4531.587  2.104418e-16 
         4533.968  2.230411e-16 
         4536.348  2.261731e-16 
         4538.728  2.024557e-16 
         4541.108  1.970985e-16 
         4543.488  2.157982e-16 
         4545.868  2.224666e-16 
         4548.249  1.967033e-16 
         4550.628  1.973681e-16 
         4553.009  2.096193e-16 
         4555.389  1.904602e-16 
         4557.769  1.849295e-16 
         4560.149  1.859133e-16 
         4562.529  1.922253e-16 
         4564.909  2.036382e-16 
          4567.29  2.126185e-16 
         4569.669  2.352003e-16 
          4572.05  2.246282e-16 
          4574.43  2.178453e-16 
          4576.81  2.263386e-16 
          4579.19  2.213882e-16 
          4581.57  2.314681e-16 
          4583.95  2.351285e-16 
         4586.331  2.169457e-16 
          4588.71  2.004949e-16 
         4591.091  2.187556e-16 
         4593.471  2.405246e-16 
         4595.851  2.395759e-16 
         4598.231  2.078161e-16 
         4600.611  1.918137e-16 
         4602.991  1.926932e-16 
         4605.372  2.088032e-16 
         4607.751  2.123994e-16 
         4610.132  2.112177e-16 
         4612.512  2.085047e-16 
         4614.892  2.213465e-16 
         4617.272  2.195393e-16 
         4619.652  2.065077e-16 
         4622.032  2.007391e-16 
         4624.413  2.112482e-16 
         4626.792  1.827383e-16 
         4629.173  1.815937e-16 
         4631.553   1.87525e-16 
         4633.933  1.926337e-16 
         4636.313  1.983806e-16 
         4638.693  1.933468e-16 
         4641.073  2.014058e-16 
         4643.454  2.055798e-16 
         4645.833  1.953795e-16 
         4648.214  2.043371e-16 
         4650.594  1.809842e-16 
         4652.974  1.720794e-16 
         4655.354  1.773909e-16 
         4657.734  1.729107e-16 
         4660.114  1.718917e-16 
         4662.495  1.649023e-16 
         4664.875  1.777303e-16 
         4667.255  1.703708e-16 
         4669.635  1.713373e-16 
         4672.015  1.783736e-16 
         4674.395  1.889658e-16 
         4676.775  1.750479e-16 
         4679.155  1.816169e-16 
         4681.536  1.776245e-16 
         4683.916  1.683595e-16 
         4686.296  1.768131e-16 
         4688.676  1.874851e-16 
         4691.056  1.786866e-16 
         4693.437  1.608609e-16 
         4695.816  1.703046e-16 
         4698.197   1.89228e-16 
         4700.577  1.884104e-16 
