# STATUS =
# OBJECT = 2015bn
# TELESCOPE = UH88
# INSTRUMENT = SNIFS
# DATE-OBS = 2015-05-23 00:00:00.00
# MJD = 57165.0
# EXPTIME = 1200
# AIRMASS = --
# SLIT = 0.0
# DISPERSER = --
# SOURCE = 2016ApJ...826...39N
# FILTER =
# RESOLUTION =
# FLUX_STANDARD =
# EXTINCTION_CORRECTED = --
# PHOTOMETRY_CALIBRATED =
# TELLURIC_CORRECTED =
# FLUX_UNITS = Other
# WAVE_UNITS = Angstrom
# QUALITY = High
# MIN_WAVE = 3301.06
# MAX_WAVE = 9701.23
# COMMENT = [Data obtained from:Nicholl, M.] [Prev. spec info - createdby: ilanm-UploadSet; modifiedby: ilanm-UploadSet]
       Wavelength           Flux 
          3303.44   3.714058e-16 
          3305.82   3.763325e-16 
           3308.2   2.742229e-16 
         3310.581   2.880954e-16 
         3312.961   4.299578e-16 
         3315.341   2.473813e-16 
         3317.721   3.189842e-16 
         3320.101   4.179428e-16 
         3322.481   2.788211e-16 
         3324.861   2.678061e-16 
         3327.241   5.561573e-16 
         3329.622   5.763907e-16 
         3332.002   5.874667e-16 
         3334.382   5.788754e-16 
         3336.762   2.645524e-16 
         3339.142   3.073461e-16 
         3341.522   5.326039e-16 
         3343.902   4.736992e-16 
         3346.282   3.745199e-16 
         3348.663   3.220377e-16 
         3351.043   4.824343e-16 
         3353.423   5.863125e-16 
         3355.803   5.726088e-16 
         3358.183   4.742705e-16 
         3360.563   4.862496e-16 
         3362.943   4.328621e-16 
         3365.323   4.688037e-16 
         3367.704   4.476328e-16 
         3370.084   3.722766e-16 
         3372.464   1.527978e-16 
         3374.844    1.80279e-16 
         3377.224   2.291899e-16 
         3379.604   2.790431e-16 
         3381.984   9.368065e-17 
         3384.365  -2.528974e-17 
         3386.745   5.272027e-17 
         3389.125   2.153563e-16 
         3391.505    3.25493e-16 
         3393.885   3.255816e-16 
         3396.265   3.093869e-16 
         3398.646   3.607813e-16 
         3401.026   3.533617e-16 
         3403.406   3.241188e-16 
         3405.786   2.851241e-16 
         3408.166   5.570954e-16 
         3410.546   4.945812e-16 
         3412.926   4.080791e-16 
         3415.306   3.577491e-16 
         3417.687   4.028191e-16 
         3420.067   3.735395e-16 
         3422.447   3.669861e-16 
         3424.827   2.201715e-16 
         3427.207    3.06346e-16 
         3429.587   3.259209e-16 
         3431.967   1.729867e-16 
         3434.347   1.410328e-16 
         3436.728   3.937739e-16 
         3439.108   4.943995e-16 
         3441.488   3.458207e-16 
         3443.868   8.384098e-17 
         3446.248  -3.549668e-18 
         3448.628   1.455971e-16 
         3451.008   3.895549e-16 
         3453.388   4.383948e-16 
         3455.769    3.71627e-16 
         3458.149   4.255602e-16 
         3460.529   3.315566e-16 
         3462.909   2.396618e-16 
         3465.289   1.666074e-16 
         3467.669   1.833435e-16 
         3470.049   2.950146e-16 
         3472.429   2.831345e-16 
          3474.81   2.355154e-16 
          3477.19   1.978825e-16 
          3479.57   2.414682e-16 
          3481.95   3.179932e-16 
          3484.33   3.277196e-16 
          3486.71   2.650409e-16 
          3489.09   2.387507e-16 
          3491.47   2.189824e-16 
         3493.851   3.001235e-16 
         3496.231   3.939564e-16 
         3498.611   3.629996e-16 
         3500.991   3.848192e-16 
         3503.371   3.164506e-16 
         3505.751   2.336908e-16 
         3508.131   2.479049e-16 
         3510.511   2.509602e-16 
         3512.892   3.372321e-16 
         3515.272   4.124173e-16 
         3517.652   3.139622e-16 
         3520.032   2.356974e-16 
         3522.412   2.646435e-16 
         3524.792   2.318726e-16 
         3527.172   2.730773e-16 
         3529.552   3.788257e-16 
         3531.933   3.366408e-16 
         3534.313   2.694466e-16 
         3536.693   3.003547e-16 
         3539.073   3.845942e-16 
         3541.453   4.479986e-16 
         3543.833   4.664586e-16 
         3546.213   5.396689e-16 
         3548.594   5.697636e-16 
         3550.974   5.290621e-16 
         3553.354   3.314862e-16 
         3555.734    2.88513e-16 
         3558.114     3.5614e-16 
         3560.494   3.779769e-16 
         3562.875   4.888747e-16 
         3565.255   4.614808e-16 
         3567.635   3.384467e-16 
         3570.015     3.7423e-16 
         3572.395    4.11286e-16 
         3574.775   3.693465e-16 
         3577.155   3.041072e-16 
         3579.535   3.172236e-16 
         3581.916   3.443034e-16 
         3584.296    3.65307e-16 
         3586.676   3.409377e-16 
         3589.056   3.979902e-16 
         3591.436   3.362529e-16 
         3593.816   3.679901e-16 
         3596.196    3.31226e-16 
         3598.576    2.14582e-16 
         3600.957   3.259836e-16 
         3603.337   2.964074e-16 
         3605.717   1.975082e-16 
         3608.097    3.06076e-16 
         3610.477   3.733158e-16 
         3612.857   3.871492e-16 
         3615.237   3.193123e-16 
         3617.617   3.354514e-16 
         3619.998   4.126588e-16 
         3622.378    4.19795e-16 
         3624.758   4.479615e-16 
         3627.138   4.930721e-16 
         3629.518   4.558483e-16 
         3631.898   4.383051e-16 
         3634.278   4.449428e-16 
         3636.658   3.805476e-16 
         3639.039   4.010984e-16 
         3641.419   3.624291e-16 
         3643.799   3.679697e-16 
         3646.179    4.30929e-16 
         3648.559   3.730337e-16 
         3650.939   3.217348e-16 
         3653.319   3.453251e-16 
         3655.699   3.598148e-16 
          3658.08   3.636368e-16 
          3660.46   3.581199e-16 
          3662.84   3.955424e-16 
          3665.22   3.954208e-16 
           3667.6   3.789706e-16 
          3669.98   2.995393e-16 
          3672.36   3.172505e-16 
          3674.74   3.201695e-16 
         3677.121    3.47298e-16 
         3679.501   3.435256e-16 
         3681.881   3.721909e-16 
         3684.261   3.332419e-16 
         3686.641   3.058264e-16 
         3689.021   3.563189e-16 
         3691.401   3.685601e-16 
         3693.781   3.624164e-16 
         3696.162   3.933842e-16 
         3698.542   4.113369e-16 
         3700.922   4.617497e-16 
         3703.302    4.60263e-16 
         3705.682   4.354243e-16 
         3708.062   3.655383e-16 
         3710.442   3.631246e-16 
         3712.823   4.505268e-16 
         3715.203   5.445324e-16 
         3717.583   5.547006e-16 
         3719.963   5.022876e-16 
         3722.343   4.834628e-16 
         3724.723   4.407959e-16 
         3727.103   4.880462e-16 
         3729.483   4.744646e-16 
         3731.864   3.331979e-16 
         3734.244   3.698789e-16 
         3736.624   4.418714e-16 
         3739.004   3.935152e-16 
         3741.384   3.855283e-16 
         3743.764   4.174969e-16 
         3746.145   3.681893e-16 
         3748.525   4.382922e-16 
         3750.905   4.738434e-16 
         3753.285   4.244357e-16 
         3755.665     3.7843e-16 
         3758.045   3.304093e-16 
         3760.425    3.33498e-16 
         3762.805   2.677391e-16 
         3765.186   2.685405e-16 
         3767.566   3.574585e-16 
         3769.946   4.358904e-16 
         3772.326   3.304647e-16 
         3774.706    3.07147e-16 
         3777.086   3.494204e-16 
         3779.466   3.787262e-16 
         3781.846   3.991303e-16 
         3784.227   3.867518e-16 
         3786.607   3.790763e-16 
         3788.987   3.813769e-16 
         3791.367   4.037709e-16 
         3793.747   3.353061e-16 
         3796.127    3.42711e-16 
         3798.507   4.089897e-16 
         3800.887   4.084376e-16 
         3803.268   4.323569e-16 
         3805.648   4.637153e-16 
         3808.028   4.172561e-16 
         3810.408   3.383602e-16 
         3812.788   3.394351e-16 
         3815.168   3.398669e-16 
         3817.548   3.010429e-16 
         3819.928   3.197154e-16 
         3822.309   3.798778e-16 
         3824.689   4.494072e-16 
         3827.069   5.060689e-16 
         3829.449   4.236759e-16 
         3831.829   3.573386e-16 
         3834.209     4.1674e-16 
         3836.589   4.147084e-16 
         3838.969   3.638641e-16 
          3841.35   3.229452e-16 
          3843.73   3.849356e-16 
          3846.11   3.898667e-16 
          3848.49   3.936478e-16 
          3850.87   4.739608e-16 
          3853.25   4.352866e-16 
          3855.63   3.645445e-16 
          3858.01   3.792627e-16 
         3860.391   4.364329e-16 
         3862.771   4.392738e-16 
         3865.151    4.42851e-16 
         3867.531   4.666968e-16 
         3869.911   4.422977e-16 
         3872.291   3.825743e-16 
         3874.671   3.901992e-16 
         3877.052    3.76144e-16 
         3879.432    3.94434e-16 
         3881.812   4.396289e-16 
         3884.192   5.008741e-16 
         3886.572   4.259599e-16 
         3888.952   3.466584e-16 
         3891.332   4.075695e-16 
         3893.712   4.558732e-16 
         3896.093   4.291112e-16 
         3898.473   4.172122e-16 
         3900.853   4.528672e-16 
         3903.233   4.181562e-16 
         3905.613   3.599606e-16 
         3907.993   3.653026e-16 
         3910.374   3.285993e-16 
         3912.754   3.216768e-16 
         3915.134   3.717711e-16 
         3917.514   4.639405e-16 
         3919.894   4.303172e-16 
         3922.274   4.025219e-16 
         3924.654   4.225054e-16 
         3927.034   4.141509e-16 
         3929.415    4.48989e-16 
         3931.795   4.149139e-16 
         3934.175   4.007623e-16 
         3936.555   4.373024e-16 
         3938.935   4.461884e-16 
         3941.315   4.543815e-16 
         3943.695   5.081926e-16 
         3946.075    4.64276e-16 
         3948.456     4.1766e-16 
         3950.836   4.429261e-16 
         3953.216   4.057158e-16 
         3955.596   4.371898e-16 
         3957.976   4.111815e-16 
         3960.356   3.656824e-16 
         3962.736   3.686635e-16 
         3965.116   3.734235e-16 
         3967.497   4.084939e-16 
         3969.877    4.51363e-16 
         3972.257    4.74095e-16 
         3974.637   4.974834e-16 
         3977.017   4.809069e-16 
         3979.397   5.101368e-16 
         3981.777   5.181386e-16 
         3984.157   5.128683e-16 
         3986.538   5.573815e-16 
         3988.918   5.008159e-16 
         3991.298   5.705945e-16 
         3993.678   6.832098e-16 
         3996.058   6.760148e-16 
         3998.438   6.008848e-16 
         4000.818   6.253103e-16 
         4003.198   6.345681e-16 
         4005.579   5.805951e-16 
         4007.959   4.993473e-16 
         4010.339   4.628867e-16 
         4012.719   4.709805e-16 
         4015.099     4.8809e-16 
         4017.479   4.097523e-16 
         4019.859   3.654364e-16 
          4022.24    3.86756e-16 
          4024.62   3.738169e-16 
           4027.0   3.469447e-16 
          4029.38    3.57195e-16 
          4031.76   4.113152e-16 
          4034.14   4.241415e-16 
          4036.52   3.703562e-16 
           4038.9   3.720414e-16 
         4041.281   3.689695e-16 
         4043.661   3.876696e-16 
         4046.041   4.795737e-16 
         4048.421   4.577149e-16 
         4050.801   3.829459e-16 
         4053.181   3.457195e-16 
         4055.561   3.930687e-16 
         4057.941   4.426017e-16 
         4060.322   4.685798e-16 
         4062.702   4.522138e-16 
         4065.082   4.534379e-16 
         4067.462    4.65502e-16 
         4069.842   4.865744e-16 
         4072.222   4.635032e-16 
         4074.602   4.697255e-16 
         4076.982   4.423356e-16 
         4079.363   4.728454e-16 
         4081.743   5.238395e-16 
         4084.123   5.329023e-16 
         4086.503   4.977265e-16 
         4088.883   4.839658e-16 
         4091.263   5.199069e-16 
         4093.644   5.663431e-16 
         4096.023   4.994872e-16 
         4098.404    4.81192e-16 
         4100.784   5.355958e-16 
         4103.164   5.300575e-16 
         4105.544   5.199311e-16 
         4107.924   5.545649e-16 
         4110.304     4.9317e-16 
         4112.685   5.178075e-16 
         4115.064   4.962993e-16 
         4117.445   4.273326e-16 
         4119.825   4.579945e-16 
         4122.205   4.695689e-16 
         4124.585    4.06726e-16 
         4126.965   3.841267e-16 
         4129.345   4.109034e-16 
         4131.726   4.078663e-16 
         4134.105   3.728182e-16 
         4136.486   4.130411e-16 
         4138.866    4.27057e-16 
         4141.246   4.267117e-16 
         4143.626   3.943129e-16 
         4146.006   3.744327e-16 
         4148.386    3.94793e-16 
         4150.767   4.459239e-16 
         4153.146   4.275109e-16 
         4155.527   4.467957e-16 
         4157.907   4.954678e-16 
         4160.287   4.912862e-16 
         4162.667   4.006391e-16 
         4165.047   3.802579e-16 
         4167.428   3.373997e-16 
         4169.808    3.89349e-16 
         4172.188   4.098509e-16 
         4174.568   4.447962e-16 
         4176.948   4.331784e-16 
         4179.328   4.542757e-16 
         4181.708   4.824848e-16 
         4184.088   4.054288e-16 
         4186.469   3.859041e-16 
         4188.849   4.102451e-16 
         4191.229    4.23027e-16 
         4193.609   3.755163e-16 
         4195.989   4.043159e-16 
         4198.369   3.797116e-16 
          4200.75   4.457299e-16 
         4203.129   4.040546e-16 
          4205.51   4.015223e-16 
          4207.89   3.814354e-16 
          4210.27   3.826922e-16 
          4212.65   4.058644e-16 
          4215.03   4.432087e-16 
          4217.41   4.308047e-16 
         4219.791   4.085056e-16 
          4222.17   4.241422e-16 
         4224.551    3.85055e-16 
         4226.931   3.563009e-16 
         4229.311   4.336982e-16 
         4231.691   4.393375e-16 
         4234.071   3.801899e-16 
         4236.451   3.937855e-16 
         4238.832   3.601225e-16 
         4241.211   3.992794e-16 
         4243.592   4.303917e-16 
         4245.972   4.458867e-16 
         4248.352   4.481217e-16 
         4250.732   4.428494e-16 
         4253.112   4.467425e-16 
         4255.492   4.163117e-16 
         4257.873   3.819946e-16 
         4260.252   3.194113e-16 
         4262.633   3.348547e-16 
         4265.013    4.31968e-16 
         4267.393   4.701694e-16 
         4269.773   4.363407e-16 
         4272.153   4.271693e-16 
         4274.533   4.500968e-16 
         4276.914   4.555935e-16 
         4279.293   4.872875e-16 
         4281.674   4.560794e-16 
         4284.054   4.358162e-16 
         4286.434   4.491899e-16 
         4288.814   4.311765e-16 
         4291.194   4.623071e-16 
         4293.574   4.957659e-16 
         4295.955   4.433475e-16 
         4298.334   4.419604e-16 
         4300.715   4.961695e-16 
         4303.095   4.419001e-16 
         4305.475   4.343693e-16 
         4307.855   4.820225e-16 
         4310.235   4.663341e-16 
         4312.615   4.507926e-16 
         4314.996   4.414084e-16 
         4317.375   4.457734e-16 
         4319.756   4.564568e-16 
         4322.136   4.951279e-16 
         4324.516   4.738793e-16 
         4326.896    4.50677e-16 
         4329.276    4.21084e-16 
         4331.656   4.461358e-16 
         4334.037    4.87244e-16 
         4336.417   4.633897e-16 
         4338.797    4.42129e-16 
         4341.177   4.525601e-16 
         4343.557   4.769403e-16 
         4345.937   4.588654e-16 
         4348.317   4.875226e-16 
         4350.698    4.52871e-16 
         4353.078   4.755435e-16 
         4355.458   4.962106e-16 
         4357.838   4.985416e-16 
         4360.218    4.91871e-16 
         4362.598   4.786955e-16 
         4364.979   4.826707e-16 
         4367.358   4.589916e-16 
         4369.739   4.871964e-16 
         4372.119   5.262202e-16 
         4374.499   5.290365e-16 
         4376.879    4.75076e-16 
         4379.259   4.944491e-16 
         4381.639   5.019229e-16 
          4384.02   5.088848e-16 
         4386.399   5.474789e-16 
          4388.78   5.397624e-16 
          4391.16   5.249404e-16 
          4393.54   5.157328e-16 
          4395.92   4.961723e-16 
           4398.3   5.151824e-16 
          4400.68   5.203561e-16 
         4403.061    4.87144e-16 
          4405.44   4.606662e-16 
         4407.821   4.445179e-16 
         4410.201    4.51802e-16 
         4412.581   4.652567e-16 
         4414.961   5.024327e-16 
         4417.341   4.934303e-16 
         4419.721   4.831278e-16 
         4422.102    4.63231e-16 
         4424.481   4.577494e-16 
         4426.862    4.72299e-16 
         4429.242   4.536066e-16 
         4431.622   4.553836e-16 
         4434.002   4.463398e-16 
         4436.382   4.483799e-16 
         4438.762   4.366908e-16 
         4441.143     4.1361e-16 
         4443.522   4.293671e-16 
         4445.903   4.421531e-16 
         4448.283   4.216118e-16 
         4450.663   4.632757e-16 
         4453.043    4.58211e-16 
         4455.423   4.265631e-16 
         4457.803   4.307591e-16 
         4460.184   4.286588e-16 
         4462.563   4.336039e-16 
         4464.944   4.472653e-16 
         4467.324   4.431735e-16 
         4469.704   4.368391e-16 
         4472.084    4.42686e-16 
         4474.464    4.21552e-16 
         4476.844   4.171582e-16 
         4479.225   4.220257e-16 
         4481.604   3.948402e-16 
         4483.985   3.745256e-16 
         4486.365   3.782456e-16 
         4488.745   3.782536e-16 
         4491.125   3.627016e-16 
         4493.505   3.616027e-16 
         4495.885   4.144147e-16 
         4498.266   4.025879e-16 
         4500.646    3.96106e-16 
         4503.026   3.931949e-16 
         4505.406   4.158837e-16 
         4507.786   4.124197e-16 
         4510.166   4.077608e-16 
         4512.546   4.096297e-16 
         4514.927   3.940584e-16 
         4517.307   4.127301e-16 
         4519.687   4.266997e-16 
         4522.067   3.759658e-16 
         4524.447   3.432281e-16 
         4526.827    3.48742e-16 
         4529.208   3.696988e-16 
         4531.587   3.870964e-16 
         4533.968   3.839164e-16 
         4536.348   3.803018e-16 
         4538.728   3.540872e-16 
         4541.108    3.78926e-16 
         4543.488   3.903375e-16 
         4545.868    3.83605e-16 
         4548.249   3.587689e-16 
         4550.628   3.928461e-16 
         4553.009   3.972637e-16 
         4555.389   3.783473e-16 
         4557.769   4.075541e-16 
         4560.149   4.255102e-16 
         4562.529   4.249758e-16 
         4564.909   4.223096e-16 
          4567.29   3.840182e-16 
         4569.669   3.808253e-16 
          4572.05   4.165585e-16 
          4574.43   3.811605e-16 
          4576.81   3.939014e-16 
          4579.19   4.309693e-16 
          4581.57   4.393441e-16 
          4583.95   3.954772e-16 
         4586.331   4.086792e-16 
          4588.71   3.840767e-16 
         4591.091    4.10205e-16 
         4593.471   4.272883e-16 
         4595.851   4.376489e-16 
         4598.231   4.468777e-16 
         4600.611   4.233127e-16 
         4602.991   4.324365e-16 
         4605.372   4.198617e-16 
         4607.751   4.129041e-16 
         4610.132   4.220474e-16 
         4612.512   4.062426e-16 
         4614.892   4.291127e-16 
         4617.272   4.350387e-16 
         4619.652   4.252142e-16 
         4622.032    3.96593e-16 
         4624.413   3.707882e-16 
         4626.792   3.824895e-16 
         4629.173   4.321157e-16 
         4631.553   4.172409e-16 
         4633.933   3.979049e-16 
         4636.313   3.661361e-16 
         4638.693   4.038413e-16 
         4641.073   4.528539e-16 
         4643.454   3.740601e-16 
         4645.833   3.322901e-16 
         4648.214   3.426156e-16 
         4650.594   3.642107e-16 
         4652.974   3.817278e-16 
         4655.354   3.450687e-16 
         4657.734   3.486733e-16 
