# STATUS =
# OBJECT = 2018bgv
# TELESCOPE = NOT
# INSTRUMENT = ALFOSC
# DATE-OBS = 2018-06-13 00:00:00.00
# MJD = 58282.0
# EXPTIME = --
# AIRMASS = --
# SLIT = --
# DISPERSER = --
# SOURCE = 2020ApJ...901...61L
# FILTER =
# RESOLUTION =
# FLUX_STANDARD =
# EXTINCTION_CORRECTED = --
# PHOTOMETRY_CALIBRATED =
# TELLURIC_CORRECTED =
# FLUX_UNITS = erg cm(-2) sec(-1) Ang(-1)
# WAVE_UNITS = Angstrom
# QUALITY = Medium
# MIN_WAVE = 3430.43
# MAX_WAVE = 9199.638
# COMMENT = --
 Wavelength           Flux 
   3433.147  -5.368769e-17 
   3435.866   2.342621e-17 
   3438.586    4.70986e-17 
   3441.309   6.681103e-17 
   3444.033    6.14545e-17 
    3446.76   -5.97615e-17 
   3449.488  -9.513516e-18 
   3452.219   1.132132e-16 
   3454.951  -6.846547e-17 
   3457.685  -6.334406e-17 
   3460.421   1.359389e-16 
   3463.159    1.54638e-18 
   3465.899  -7.139134e-18 
    3468.64  -2.170095e-17 
   3471.384  -5.630513e-18 
    3474.13  -5.036889e-17 
   3476.877   1.478406e-17 
   3479.626   -4.41436e-18 
   3482.377  -1.986657e-17 
   3485.131  -3.533662e-17 
   3487.885  -5.080528e-17 
   3490.643    6.88786e-17 
   3493.401   2.242007e-17 
   3496.162   4.769513e-17 
   3498.924   3.822258e-17 
   3501.689   2.498667e-17 
   3504.455   3.860211e-17 
   3507.223  -1.467868e-17 
   3509.993   6.447188e-17 
   3512.765   3.349694e-17 
   3515.538    3.52091e-17 
   3518.314   -1.35491e-18 
   3521.091   3.177025e-17 
    3523.87  -3.328832e-17 
   3526.652  -2.355703e-18 
   3529.434   6.082113e-17 
   3532.219   2.840952e-17 
   3535.006   7.648324e-18 
   3537.794   3.390219e-17 
   3540.584   4.065698e-17 
   3543.376   3.140448e-17 
    3546.17   2.214552e-17 
   3548.966   1.287927e-17 
   3551.763   9.894678e-18 
   3554.563   4.335182e-17 
   3557.364  -1.875947e-17 
   3560.167   7.964569e-17 
   3562.972   8.175042e-18 
   3565.778   7.690752e-17 
   3568.586   1.789647e-17 
   3571.397   5.401726e-17 
   3574.209   1.868821e-17 
   3577.022   2.216657e-17 
   3579.838    3.79307e-17 
   3582.655   1.901546e-17 
   3585.474  -2.641546e-17 
   3588.295   5.393577e-18 
   3591.118   2.060879e-17 
   3593.942   2.645933e-17 
   3596.769   2.039605e-17 
   3599.596   4.724241e-17 
   3602.426     3.0671e-17 
   3605.258   3.195586e-17 
   3608.091  -2.552694e-17 
   3610.926   4.612434e-17 
   3613.763   2.193073e-17 
   3616.601     1.6936e-17 
   3619.442   1.419215e-17 
   3622.284   2.520891e-17 
   3625.127   3.106178e-17 
   3627.973   5.637377e-17 
    3630.82   5.899177e-17 
   3633.669     2.6966e-17 
    3636.52    2.33462e-17 
   3639.373   3.192359e-17 
   3642.227   1.350053e-17 
   3645.083   5.146451e-17 
    3647.94   2.475943e-18 
     3650.8     1.7515e-17 
   3653.661   2.661904e-17 
   3656.523   9.637653e-18 
   3659.388   5.856232e-18 
   3662.254   8.559637e-18 
   3665.122   5.682647e-18 
   3667.992   2.983254e-17 
   3670.863   3.047313e-17 
   3673.736   5.349002e-17 
   3676.611   4.584596e-17 
   3679.487   3.232794e-17 
   3682.365   3.028731e-17 
   3685.245   2.831681e-18 
   3688.127   1.362334e-17 
    3691.01   3.275185e-17 
   3693.895   4.172275e-17 
   3696.781    1.45163e-17 
   3699.669   8.811226e-18 
   3702.559   5.901951e-17 
   3705.451   3.362477e-17 
   3708.344    1.24329e-17 
   3711.239   3.226404e-17 
   3714.135  -2.031564e-18 
   3717.034   4.919332e-17 
   3719.933   5.055213e-18 
   3722.835   4.575796e-17 
   3725.738   3.991263e-17 
   3728.643   6.895975e-17 
   3731.549   3.593856e-17 
   3734.457   4.625819e-17 
   3737.367   2.547982e-17 
   3740.279   7.252492e-18 
   3743.191   3.990242e-17 
   3746.106    6.15326e-18 
   3749.022   4.879199e-17 
    3751.94    2.56099e-17 
    3754.86   3.106414e-17 
   3757.781   2.389197e-17 
   3760.704   2.950447e-17 
   3763.628   2.186212e-17 
   3766.554   2.707601e-17 
   3769.481   5.919802e-17 
   3772.411   3.471678e-17 
   3775.341   3.915269e-17 
   3778.274   4.252529e-17 
   3781.208   3.994102e-17 
   3784.143   3.739019e-17 
   3787.081   3.250771e-17 
   3790.019   4.818056e-17 
   3792.959   4.797808e-17 
   3795.902   3.961049e-17 
   3798.845   3.676023e-17 
    3801.79   2.829755e-17 
   3804.737   3.067538e-17 
   3807.685    4.79183e-17 
   3810.635   2.972161e-17 
   3813.586   4.806954e-17 
   3816.539   2.954171e-17 
   3819.494   5.066285e-17 
    3822.45   3.894591e-17 
   3825.408   2.671926e-17 
   3828.367   3.860516e-17 
   3831.328   3.404569e-17 
    3834.29   3.587697e-17 
   3837.254   3.971798e-17 
   3840.219   3.449018e-17 
   3843.186   4.489467e-17 
   3846.155   3.391762e-17 
   3849.125   3.744692e-17 
   3852.096   5.785691e-17 
    3855.07    5.03844e-17 
   3858.044   3.269804e-17 
    3861.02   4.268025e-17 
   3863.998   3.874818e-17 
   3866.977   4.246405e-17 
   3869.958   4.897344e-17 
    3872.94   4.864314e-17 
   3875.924   4.112593e-17 
   3878.909   4.590685e-17 
   3881.896   3.900271e-17 
   3884.885   3.948032e-17 
   3887.875   4.307884e-17 
   3890.866   3.541575e-17 
   3893.859   4.090265e-17 
   3896.853   4.632167e-17 
   3899.849   4.639056e-17 
   3902.846   5.074931e-17 
   3905.845   4.821737e-17 
   3908.845   5.562309e-17 
   3911.847   4.763296e-17 
    3914.85   4.587788e-17 
   3917.855   4.122956e-17 
   3920.861   4.336946e-17 
   3923.869   5.178523e-17 
   3926.878    4.04392e-17 
   3929.889   4.825607e-17 
   3932.901   5.539302e-17 
   3935.915   3.590649e-17 
    3938.93   4.117097e-17 
   3941.946   3.405535e-17 
   3944.964   4.588676e-17 
   3947.984   4.347494e-17 
   3951.005   3.922795e-17 
   3954.027   4.459893e-17 
   3957.051   4.018238e-17 
   3960.076   3.724669e-17 
   3963.103   3.215182e-17 
   3966.131   3.892502e-17 
    3969.16    4.28942e-17 
   3972.191   5.176488e-17 
   3975.224   3.618074e-17 
   3978.258   3.561317e-17 
   3981.293   3.161561e-17 
    3984.33   4.186778e-17 
   3987.368   3.626707e-17 
   3990.407   2.857353e-17 
   3993.448   3.417594e-17 
   3996.491   3.443107e-17 
   3999.535   2.920693e-17 
    4002.58    3.85277e-17 
   4005.627   3.425763e-17 
   4008.675     3.2837e-17 
   4011.724   3.792088e-17 
   4014.775   4.189425e-17 
   4017.827   5.052995e-17 
   4020.881   7.028543e-17 
   4023.936   5.583595e-17 
   4026.992   5.588421e-17 
    4030.05   4.557889e-17 
    4033.11   2.370142e-17 
    4036.17    2.85858e-17 
   4039.232    3.60046e-17 
   4042.296   3.981791e-17 
    4045.36   3.628259e-17 
   4048.427   3.764859e-17 
   4051.494   3.727837e-17 
   4054.563    3.69296e-17 
   4057.633   3.913304e-17 
   4060.705   4.168043e-17 
   4063.778   4.165201e-17 
   4066.852   3.793147e-17 
   4069.928   3.571846e-17 
   4073.005   3.678675e-17 
   4076.083   4.674827e-17 
   4079.163   4.339565e-17 
   4082.244   4.534225e-17 
   4085.327   4.870116e-17 
    4088.41   4.087164e-17 
   4091.496   3.917812e-17 
   4094.582   4.100848e-17 
    4097.67   4.509592e-17 
   4100.759   4.399035e-17 
    4103.85   4.581462e-17 
   4106.941    4.32581e-17 
   4110.035    5.35327e-17 
   4113.129   5.751759e-17 
   4116.225   5.079541e-17 
   4119.322   5.064455e-17 
    4122.42   5.419174e-17 
    4125.52   5.073862e-17 
   4128.621   5.170441e-17 
   4131.724          5e-17 
   4134.827   4.204402e-17 
   4137.932   4.870023e-17 
   4141.039   5.103188e-17 
   4144.146   5.505625e-17 
   4147.255   5.294405e-17 
   4150.365   4.861145e-17 
   4153.477   5.888032e-17 
    4156.59   6.115555e-17 
   4159.704   5.735524e-17 
   4162.819   6.204367e-17 
   4165.936   6.811433e-17 
   4169.054    6.08747e-17 
   4172.173   6.194852e-17 
   4175.293   7.134928e-17 
   4178.416   6.427737e-17 
   4181.539   6.850697e-17 
   4184.663   6.064087e-17 
   4187.789   6.777815e-17 
   4190.916   6.611716e-17 
   4194.043   7.442041e-17 
   4197.173   6.660805e-17 
   4200.304   6.342609e-17 
   4203.436   7.094263e-17 
   4206.569   6.759144e-17 
   4209.703   7.017702e-17 
   4212.839   7.064223e-17 
   4215.976   7.658806e-17 
   4219.114   6.901685e-17 
   4222.253   6.897272e-17 
   4225.394    7.37397e-17 
   4228.536   7.261645e-17 
   4231.679   6.787867e-17 
   4234.824    6.79779e-17 
   4237.969   7.295394e-17 
   4241.116   6.496385e-17 
   4244.264   6.406039e-17 
   4247.414   6.449004e-17 
   4250.564     7.0415e-17 
   4253.716   7.296671e-17 
   4256.869   6.996399e-17 
   4260.023   6.405681e-17 
   4263.179   6.352385e-17 
   4266.335   7.379641e-17 
   4269.493   7.264867e-17 
   4272.652   7.100776e-17 
   4275.812   6.466426e-17 
   4278.974   6.564106e-17 
   4282.137   6.636172e-17 
   4285.301   6.250244e-17 
   4288.466   6.675954e-17 
   4291.632    6.30814e-17 
     4294.8   6.923989e-17 
   4297.968   6.581838e-17 
   4301.138   6.697405e-17 
   4304.309   6.445532e-17 
   4307.481   6.770526e-17 
   4310.655   6.910301e-17 
    4313.83   6.324501e-17 
   4317.005   6.721003e-17 
   4320.182   6.466279e-17 
    4323.36   6.679587e-17 
    4326.54   6.516584e-17 
    4329.72   6.474462e-17 
   4332.902   7.023189e-17 
   4336.085   6.088377e-17 
   4339.269   6.414262e-17 
   4342.454   6.476937e-17 
    4345.64    6.06436e-17 
   4348.828   6.209649e-17 
   4352.016   5.645627e-17 
   4355.206   6.223127e-17 
   4358.397   5.779924e-17 
   4361.589   6.326477e-17 
   4364.782   5.805682e-17 
   4367.977   6.205062e-17 
   4371.172   5.622858e-17 
   4374.369   5.977892e-17 
   4377.567   5.724225e-17 
   4380.766   5.941334e-17 
   4383.966   5.771782e-17 
   4387.167   6.240623e-17 
   4390.369   5.616142e-17 
   4393.573    5.71622e-17 
   4396.777   5.668427e-17 
   4399.983   5.969446e-17 
    4403.19   5.313853e-17 
   4406.398   5.362016e-17 
   4409.607   5.946001e-17 
   4412.817   5.803442e-17 
   4416.028   5.879219e-17 
   4419.241    5.11136e-17 
   4422.454   5.470555e-17 
   4425.669   5.320549e-17 
   4428.885   5.099165e-17 
   4432.102   5.238008e-17 
   4435.319   5.424073e-17 
   4438.538   5.359807e-17 
   4441.758   5.539855e-17 
   4444.979   5.187854e-17 
   4448.202    5.33321e-17 
   4451.425   5.917943e-17 
    4454.65   4.939429e-17 
   4457.875   5.244898e-17 
   4461.102   5.104026e-17 
    4464.33   5.196507e-17 
   4467.559   5.131659e-17 
   4470.789   5.375057e-17 
    4474.02    4.99101e-17 
   4477.251   5.476554e-17 
   4480.485   5.087625e-17 
   4483.719   5.330254e-17 
   4486.954   5.167044e-17 
    4490.19   5.065538e-17 
   4493.428   5.263517e-17 
   4496.667   4.923292e-17 
   4499.906   5.018332e-17 
   4503.146   5.148177e-17 
   4506.388   5.130341e-17 
   4509.631   4.925763e-17 
   4512.875   4.790093e-17 
   4516.119   4.781611e-17 
   4519.365   4.706225e-17 
   4522.612   4.784209e-17 
    4525.86   4.896351e-17 
   4529.109   5.248087e-17 
   4532.359   5.292709e-17 
    4535.61   5.056784e-17 
   4538.862    5.00897e-17 
   4542.115   5.028235e-17 
   4545.369   4.969184e-17 
   4548.625   4.421708e-17 
    4551.88   5.136779e-17 
   4555.138   4.822382e-17 
   4558.396   5.382592e-17 
   4561.655   5.261836e-17 
   4564.916   5.115295e-17 
   4568.177   5.149212e-17 
   4571.439   5.067392e-17 
   4574.703   4.810808e-17 
   4577.967   4.915451e-17 
   4581.232   5.107805e-17 
   4584.499   5.263711e-17 
   4587.766   4.935709e-17 
   4591.034   5.100964e-17 
   4594.304   4.798515e-17 
   4597.574    5.09111e-17 
   4600.845   5.313433e-17 
   4604.118   5.138547e-17 
   4607.391    5.42119e-17 
   4610.666   5.245505e-17 
   4613.941   5.170614e-17 
   4617.217   5.142868e-17 
   4620.495   4.951556e-17 
   4623.772   4.885475e-17 
   4627.052   5.021062e-17 
   4630.332   4.787544e-17 
   4633.613   5.090884e-17 
   4636.896   5.227696e-17 
   4640.179   4.929733e-17 
   4643.463   4.929579e-17 
   4646.748   4.854677e-17 
   4650.034   4.831317e-17 
   4653.321   4.821574e-17 
   4656.609   5.104571e-17 
   4659.898   5.176999e-17 
   4663.188   5.095349e-17 
   4666.479   5.177629e-17 
   4669.771   5.261632e-17 
   4673.064   4.884898e-17 
   4676.358   5.753428e-17 
   4679.652   5.622632e-17 
   4682.948   5.560105e-17 
   4686.245   5.011045e-17 
   4689.542   5.317596e-17 
   4692.841   5.068789e-17 
   4696.141    5.28437e-17 
   4699.441   5.519403e-17 
   4702.742   5.574874e-17 
   4706.044   5.248777e-17 
   4709.348   5.911765e-17 
   4712.652   5.348581e-17 
   4715.957   5.939075e-17 
   4719.263   5.429928e-17 
    4722.57    5.69616e-17 
   4725.878   5.499391e-17 
   4729.187   5.735426e-17 
   4732.496   5.715976e-17 
   4735.807   5.638442e-17 
   4739.119   6.098635e-17 
   4742.431   5.833226e-17 
   4745.745    6.28709e-17 
   4749.059   6.156655e-17 
   4752.374   6.086914e-17 
    4755.69   6.409511e-17 
   4759.007   5.963645e-17 
   4762.325   6.196536e-17 
   4765.644   6.362413e-17 
   4768.963   6.340821e-17 
   4772.284   6.666155e-17 
   4775.606   6.379159e-17 
   4778.928   6.591612e-17 
   4782.251   7.228175e-17 
   4785.576   6.800427e-17 
   4788.901   6.895816e-17 
   4792.227   7.289035e-17 
   4795.554   7.072659e-17 
   4798.881   7.147631e-17 
    4802.21   7.377515e-17 
    4805.54   7.755659e-17 
    4808.87   7.672123e-17 
   4812.201   7.741957e-17 
   4815.534    7.77186e-17 
   4818.867   8.008263e-17 
   4822.201   7.984743e-17 
   4825.535   8.164227e-17 
   4828.871    8.26439e-17 
   4832.208   8.273509e-17 
   4835.545   8.666643e-17 
   4838.883   8.633277e-17 
   4842.222   8.755583e-17 
   4845.562   8.665363e-17 
   4848.903   9.138267e-17 
   4852.245   8.576563e-17 
   4855.587   9.106502e-17 
   4858.931   8.521218e-17 
   4862.275    9.09979e-17 
    4865.62   8.744106e-17 
   4868.966   8.826222e-17 
   4872.313   9.683183e-17 
   4875.661   9.010142e-17 
   4879.009    8.98462e-17 
   4882.358   9.502016e-17 
   4885.708   8.847222e-17 
    4889.06   9.081564e-17 
   4892.412   9.718689e-17 
   4895.764   9.282364e-17 
   4899.118    9.24215e-17 
   4902.472   9.084277e-17 
   4905.827   9.170718e-17 
   4909.183   9.170067e-17 
    4912.54   9.138306e-17 
   4915.898   9.136878e-17 
   4919.256   9.288398e-17 
   4922.616    8.91249e-17 
   4925.976    9.12637e-17 
   4929.336   8.837007e-17 
   4932.698    8.76813e-17 
   4936.061   8.275347e-17 
   4939.424   8.556717e-17 
   4942.789   8.383965e-17 
   4946.153   8.397367e-17 
    4949.52    8.30345e-17 
   4952.886   8.298068e-17 
   4956.253   7.786086e-17 
   4959.622   8.092514e-17 
   4962.991   7.757283e-17 
    4966.36   7.737999e-17 
   4969.731   7.862954e-17 
   4973.103    7.93711e-17 
   4976.475   7.662338e-17 
   4979.848   7.720224e-17 
   4983.222   7.894327e-17 
   4986.596   7.559905e-17 
   4989.971   7.331735e-17 
   4993.348   7.366732e-17 
   4996.725   7.097704e-17 
   5000.102   6.607566e-17 
   5003.481   6.933292e-17 
    5006.86   6.919897e-17 
    5010.24   7.072828e-17 
   5013.621   7.202966e-17 
   5017.002   6.813475e-17 
   5020.385    6.75233e-17 
   5023.768   6.723024e-17 
   5027.152   6.847446e-17 
   5030.537   6.857262e-17 
   5033.922   6.356273e-17 
   5037.308   6.435643e-17 
   5040.695   6.628623e-17 
   5044.083   6.856557e-17 
   5047.472   6.382813e-17 
   5050.861   6.371076e-17 
   5054.251   6.510349e-17 
   5057.642   6.360587e-17 
   5061.033   6.779046e-17 
   5064.425   6.569001e-17 
   5067.818   6.284355e-17 
   5071.212   6.340978e-17 
   5074.607   6.612871e-17 
   5078.002    6.64706e-17 
   5081.398   6.508748e-17 
   5084.795   6.484493e-17 
   5088.192   6.423597e-17 
    5091.59   6.758799e-17 
    5094.99   6.715293e-17 
   5098.389   6.641186e-17 
    5101.79   6.279223e-17 
   5105.191   6.184977e-17 
   5108.593   6.773818e-17 
   5111.996    6.68078e-17 
   5115.399   6.614701e-17 
   5118.803   6.565042e-17 
   5122.208    6.68704e-17 
   5125.613     6.8786e-17 
    5129.02    6.48854e-17 
   5132.426   6.579483e-17 
   5135.834   6.772827e-17 
   5139.243   6.648653e-17 
   5142.652   6.845156e-17 
   5146.062    6.66936e-17 
   5149.472   6.793247e-17 
   5152.883   6.844759e-17 
   5156.295   6.717175e-17 
   5159.708   6.827538e-17 
   5163.122   7.241954e-17 
   5166.536   6.965792e-17 
    5169.95   7.093677e-17 
   5173.366   7.141148e-17 
   5176.782    6.70946e-17 
   5180.199   6.927022e-17 
   5183.617   6.966732e-17 
   5187.035   6.895898e-17 
   5190.454   7.050066e-17 
   5193.874   7.119291e-17 
   5197.294   6.749744e-17 
   5200.715   7.135932e-17 
   5204.137   7.118935e-17 
   5207.559   6.776812e-17 
   5210.982   7.049987e-17 
   5214.406   6.863911e-17 
   5217.831   6.620035e-17 
   5221.256   6.842862e-17 
   5224.682   6.655285e-17 
   5228.108   6.410669e-17 
   5231.536   6.573328e-17 
   5234.963   6.743481e-17 
   5238.392   6.745407e-17 
   5241.821   6.939693e-17 
   5245.251   6.647948e-17 
   5248.682    6.60451e-17 
   5252.113   6.396459e-17 
   5255.545   6.364574e-17 
   5258.978    6.18035e-17 
   5262.411   5.749094e-17 
   5265.845   5.843088e-17 
   5269.279   5.534077e-17 
   5272.714   5.687215e-17 
    5276.15   6.048297e-17 
   5279.587     6.0173e-17 
   5283.024   6.161141e-17 
   5286.462    5.97427e-17 
     5289.9    5.93956e-17 
   5293.339   5.763333e-17 
   5296.779   5.466724e-17 
    5300.22   5.682059e-17 
   5303.661   5.805424e-17 
   5307.103   5.785474e-17 
   5310.545   5.549072e-17 
   5313.988   5.855606e-17 
   5317.432   5.540407e-17 
   5320.876   5.632909e-17 
   5324.321   5.594924e-17 
   5327.767   5.616067e-17 
   5331.213   5.451194e-17 
    5334.66   5.429061e-17 
   5338.107   5.818915e-17 
   5341.555   6.052206e-17 
   5345.004   6.281978e-17 
   5348.453   6.106988e-17 
   5351.903   6.177677e-17 
   5355.354    6.04316e-17 
   5358.805   5.950897e-17 
   5362.257   5.565622e-17 
   5365.709   6.025743e-17 
   5369.163   5.665412e-17 
   5372.616   5.586262e-17 
   5376.071   5.834857e-17 
   5379.525   5.697239e-17 
   5382.981   5.868068e-17 
   5386.438   5.724063e-17 
   5389.894   5.567867e-17 
   5393.352   5.588702e-17 
    5396.81   5.609538e-17 
   5400.268   5.630374e-17 
   5403.728   5.651221e-17 
   5407.188   5.672068e-17 
   5410.648   5.692916e-17 
   5414.109   5.713769e-17 
    5417.57   5.734622e-17 
   5421.033    5.75549e-17 
   5424.496   5.776356e-17 
   5427.959   5.521295e-17 
   5431.423   5.641093e-17 
   5434.888    5.75799e-17 
   5438.353   5.969129e-17 
   5441.819   6.197824e-17 
   5445.285   5.988555e-17 
   5448.752   6.268124e-17 
    5452.22   6.287318e-17 
   5455.688   6.137071e-17 
   5459.157   5.999184e-17 
   5462.626   6.062888e-17 
   5466.096   6.154592e-17 
   5469.566   6.296638e-17 
   5473.038   6.319155e-17 
   5476.509   6.381215e-17 
   5479.981   6.857577e-17 
   5483.455   6.428144e-17 
   5486.928   6.463926e-17 
   5490.402   6.505451e-17 
   5493.876   6.626205e-17 
   5497.352   6.842618e-17 
   5500.827   6.813028e-17 
   5504.303   6.665883e-17 
    5507.78   6.926438e-17 
   5511.258   6.981096e-17 
   5514.735   7.058492e-17 
   5518.214   6.967262e-17 
   5521.693   7.097152e-17 
   5525.173   7.401285e-17 
   5528.653   7.147161e-17 
   5532.134   6.884872e-17 
   5535.615   7.372323e-17 
   5539.097   7.181345e-17 
    5542.58   7.597356e-17 
   5546.063   7.475629e-17 
   5549.546   7.676458e-17 
    5553.03   7.613439e-17 
   5556.515   7.472916e-17 
     5560.0   7.615408e-17 
   5563.485   7.707114e-17 
   5566.972   7.798885e-17 
   5570.458   7.890618e-17 
   5573.946   7.213118e-17 
   5577.434   7.340851e-17 
   5580.922   7.468566e-17 
   5584.412    7.59637e-17 
   5587.901   7.724121e-17 
   5591.391   7.851926e-17 
   5594.882   7.842403e-17 
   5598.373    7.95949e-17 
   5601.865   8.083185e-17 
   5605.357   7.978434e-17 
    5608.85   7.584832e-17 
   5612.343   7.924229e-17 
   5615.836   8.329862e-17 
   5619.331   7.836233e-17 
   5622.826   8.015462e-17 
   5626.321   7.900924e-17 
   5629.817   8.193613e-17 
   5633.313    8.11626e-17 
   5636.811    8.24014e-17 
   5640.308   7.820911e-17 
   5643.806   7.310966e-17 
   5647.305   7.287041e-17 
   5650.804   7.376879e-17 
