# STATUS =
# OBJECT = 2016ard
# TELESCOPE = MMT
# INSTRUMENT = MMT-Blue
# DATE-OBS = 2016-04-14 00:00:00.00
# MJD = 57492.0
# EXPTIME = 2400
# AIRMASS = --
# SLIT = --
# DISPERSER = --
# SOURCE = 2018arXiv180507372B
# FILTER =
# RESOLUTION =
# FLUX_STANDARD =
# EXTINCTION_CORRECTED = --
# PHOTOMETRY_CALIBRATED =
# TELLURIC_CORRECTED =
# FLUX_UNITS = erg cm(-2) sec(-1) Ang(-1)
# WAVE_UNITS = Angstrom
# QUALITY = --
# MIN_WAVE = 3356.0
# MAX_WAVE = 8578.1
# COMMENT = --
       Wavelength          Flux 
          3357.95   3.51227e-17 
           3359.9  2.755365e-17 
          3361.85  3.555608e-17 
           3363.8   3.75358e-17 
          3365.75  2.853847e-17 
           3367.7  4.077455e-17 
          3369.65  4.867759e-17 
           3371.6  4.103236e-17 
          3373.55  2.905687e-17 
           3375.5  1.899344e-17 
          3377.45  2.740326e-17 
           3379.4  3.424738e-17 
          3381.35  3.247891e-17 
           3383.3  3.201625e-17 
          3385.25  3.842189e-17 
           3387.2  4.153369e-17 
          3389.15  3.793369e-17 
           3391.1  3.276101e-17 
          3393.05  3.576021e-17 
           3395.0  3.962742e-17 
          3396.95  4.868538e-17 
           3398.9  4.925975e-17 
          3400.85  3.678451e-17 
           3402.8  4.700541e-17 
          3404.75  5.945018e-17 
           3406.7  5.588394e-17 
          3408.65  3.562642e-17 
           3410.6  3.193636e-17 
          3412.55  4.300469e-17 
           3414.5  3.807449e-17 
          3416.45  4.012238e-17 
           3418.4  3.322783e-17 
          3420.35  2.899145e-17 
           3422.3  3.889322e-17 
          3424.25  4.093746e-17 
           3426.2  3.441549e-17 
          3428.15  2.556873e-17 
           3430.1   2.79754e-17 
          3432.05  3.866164e-17 
           3434.0  3.939841e-17 
          3435.95  3.419801e-17 
           3437.9  3.197161e-17 
          3439.85  3.233098e-17 
           3441.8  2.893618e-17 
          3443.75  3.401295e-17 
           3445.7  4.225149e-17 
          3447.65  4.030829e-17 
           3449.6  4.407053e-17 
          3451.55  5.028443e-17 
           3453.5  4.290381e-17 
          3455.45  3.642377e-17 
           3457.4  4.032075e-17 
          3459.35  3.548429e-17 
           3461.3  3.611312e-17 
          3463.25  4.642609e-17 
           3465.2  4.385662e-17 
          3467.15  4.132845e-17 
           3469.1  4.484244e-17 
          3471.05  4.240538e-17 
           3473.0  3.339922e-17 
          3474.95  2.733784e-17 
           3476.9  3.140299e-17 
          3478.85  3.873183e-17 
           3480.8  3.857731e-17 
          3482.75  4.032781e-17 
           3484.7  4.729719e-17 
          3486.65  4.266243e-17 
           3488.6  3.830392e-17 
          3490.55  4.458709e-17 
           3492.5  3.905315e-17 
          3494.45  3.875016e-17 
           3496.4  4.858519e-17 
          3498.35  4.063161e-17 
           3500.3  3.298004e-17 
          3502.25  3.074272e-17 
           3504.2  3.552377e-17 
          3506.15  4.662031e-17 
           3508.1  4.106971e-17 
          3510.05  3.638511e-17 
           3512.0  4.121297e-17 
          3513.95  4.349759e-17 
           3515.9  4.299699e-17 
          3517.85  4.095224e-17 
           3519.8  4.245235e-17 
          3521.75  3.629081e-17 
           3523.7  3.273546e-17 
          3525.65  4.241668e-17 
           3527.6  4.052295e-17 
          3529.55  3.464141e-17 
           3531.5  3.506125e-17 
          3533.45   3.43211e-17 
           3535.4  3.486554e-17 
          3537.35  3.328297e-17 
           3539.3  2.834015e-17 
          3541.25  3.426639e-17 
           3543.2  2.713783e-17 
          3545.15  2.348462e-17 
           3547.1  3.884457e-17 
          3549.05  4.356541e-17 
           3551.0  4.568678e-17 
          3552.95  4.181792e-17 
           3554.9  2.941987e-17 
          3556.85  3.093325e-17 
           3558.8  4.192128e-17 
          3560.75  4.210833e-17 
           3562.7  4.432322e-17 
          3564.65  4.133596e-17 
           3566.6  3.747297e-17 
          3568.55  4.052699e-17 
           3570.5   3.90751e-17 
          3572.45   4.11009e-17 
           3574.4  4.250398e-17 
          3576.35  3.868869e-17 
           3578.3  3.554805e-17 
          3580.25  2.858018e-17 
           3582.2  3.156374e-17 
          3584.15  3.678723e-17 
           3586.1  3.281882e-17 
          3588.05  2.748068e-17 
           3590.0  2.305433e-17 
          3591.95  2.621191e-17 
           3593.9  2.626237e-17 
          3595.85  2.404331e-17 
           3597.8  3.363203e-17 
          3599.75  3.450163e-17 
           3601.7  3.792455e-17 
          3603.65  3.857524e-17 
           3605.6  3.251701e-17 
          3607.55  2.873428e-17 
           3609.5   3.32018e-17 
          3611.45  3.605395e-17 
           3613.4  3.117838e-17 
          3615.35  3.085389e-17 
           3617.3  2.752588e-17 
          3619.25  3.532992e-17 
           3621.2  4.126427e-17 
          3623.15   3.16754e-17 
           3625.1   2.94623e-17 
          3627.05  3.195697e-17 
           3629.0  2.782506e-17 
          3630.95  2.546212e-17 
           3632.9  2.128936e-17 
          3634.85  1.394645e-17 
           3636.8  2.259862e-17 
          3638.75  3.205607e-17 
           3640.7  3.228494e-17 
          3642.65  3.200613e-17 
           3644.6  3.126153e-17 
          3646.55  2.524172e-17 
           3648.5  2.869157e-17 
          3650.45  3.802543e-17 
           3652.4  2.552307e-17 
          3654.35  2.287462e-17 
           3656.3  2.873159e-17 
          3658.25  2.682374e-17 
           3660.2  3.118141e-17 
          3662.15  3.713706e-17 
           3664.1   3.31144e-17 
          3666.05  2.854517e-17 
           3668.0   2.95999e-17 
          3669.95  2.865167e-17 
           3671.9   3.24845e-17 
          3673.85  3.657401e-17 
           3675.8  3.090757e-17 
          3677.75  2.261197e-17 
           3679.7  2.775566e-17 
          3681.65  3.783129e-17 
           3683.6  3.629001e-17 
          3685.55  2.783034e-17 
           3687.5  2.565664e-17 
          3689.45  3.359134e-17 
           3691.4  3.757879e-17 
          3693.35  2.915167e-17 
           3695.3  2.103394e-17 
          3697.25  2.751341e-17 
           3699.2   3.58169e-17 
          3701.15    3.3655e-17 
           3703.1  3.243939e-17 
          3705.05  3.814284e-17 
           3707.0  3.807594e-17 
          3708.95  3.339311e-17 
           3710.9  2.800574e-17 
          3712.85  2.772513e-17 
           3714.8  3.357125e-17 
          3716.75  4.014647e-17 
           3718.7  4.330976e-17 
          3720.65  4.025812e-17 
           3722.6  3.334134e-17 
          3724.55  3.354865e-17 
           3726.5  3.080455e-17 
          3728.45  3.271226e-17 
           3730.4  3.866217e-17 
          3732.35  3.968947e-17 
           3734.3  3.812416e-17 
          3736.25  3.947228e-17 
           3738.2  4.183574e-17 
          3740.15  3.548303e-17 
           3742.1  3.393284e-17 
          3744.05   3.66544e-17 
           3746.0  3.475709e-17 
          3747.95  3.491749e-17 
           3749.9  3.712166e-17 
          3751.85  3.862092e-17 
           3753.8  3.535656e-17 
          3755.75  3.412205e-17 
           3757.7  3.390266e-17 
          3759.65  3.739577e-17 
           3761.6  3.912666e-17 
          3763.55  3.711079e-17 
           3765.5  4.081043e-17 
          3767.45  3.864388e-17 
           3769.4  3.757789e-17 
          3771.35  3.205549e-17 
           3773.3  3.246586e-17 
          3775.25  4.403841e-17 
           3777.2  3.967683e-17 
          3779.15  3.562307e-17 
           3781.1  4.149495e-17 
          3783.05  3.723735e-17 
           3785.0  3.179933e-17 
          3786.95  2.917743e-17 
           3788.9  3.046455e-17 
          3790.85  3.968795e-17 
           3792.8  3.645889e-17 
          3794.75  3.515371e-17 
           3796.7  4.206406e-17 
          3798.65   3.60553e-17 
           3800.6  3.688908e-17 
          3802.55  3.414502e-17 
           3804.5  4.012888e-17 
          3806.45  4.151267e-17 
           3808.4  3.604643e-17 
          3810.35  3.496795e-17 
           3812.3  3.351096e-17 
          3814.25  3.750253e-17 
           3816.2  2.983369e-17 
          3818.15  2.953543e-17 
           3820.1  3.153007e-17 
          3822.05  2.864288e-17 
           3824.0  2.882552e-17 
          3825.95  3.265137e-17 
           3827.9  2.801315e-17 
          3829.85  2.434988e-17 
           3831.8  3.101203e-17 
          3833.75  3.874586e-17 
           3835.7  4.138476e-17 
          3837.65  3.595763e-17 
           3839.6  3.375276e-17 
          3841.55   3.57463e-17 
           3843.5  3.543707e-17 
          3845.45  3.821072e-17 
           3847.4  3.435824e-17 
          3849.35  2.961771e-17 
           3851.3  3.695644e-17 
          3853.25  3.822982e-17 
           3855.2  3.266807e-17 
          3857.15  3.498565e-17 
           3859.1  3.977342e-17 
          3861.05  3.694964e-17 
           3863.0  3.772944e-17 
          3864.95  3.919872e-17 
           3866.9  3.981398e-17 
          3868.85  3.523315e-17 
           3870.8   3.34291e-17 
          3872.75  3.394776e-17 
           3874.7  3.557545e-17 
          3876.65  3.168291e-17 
           3878.6  3.213005e-17 
          3880.55  4.391352e-17 
           3882.5  4.268535e-17 
          3884.45  3.436777e-17 
           3886.4  3.226296e-17 
          3888.35  3.729664e-17 
           3890.3  3.549167e-17 
          3892.25   3.00734e-17 
           3894.2  3.276242e-17 
          3896.15  3.465361e-17 
           3898.1  3.399822e-17 
          3900.05  3.295707e-17 
           3902.0  3.396176e-17 
          3903.95  3.393461e-17 
           3905.9   3.65191e-17 
          3907.85   3.94204e-17 
           3909.8   3.90899e-17 
          3911.75  3.688281e-17 
           3913.7  3.481238e-17 
          3915.65  3.319203e-17 
           3917.6  3.590062e-17 
          3919.55    4.0859e-17 
           3921.5    3.6926e-17 
          3923.45  3.621245e-17 
           3925.4  3.891014e-17 
          3927.35  3.806817e-17 
           3929.3  3.467588e-17 
          3931.25  3.776976e-17 
           3933.2  4.091231e-17 
          3935.15  3.962602e-17 
           3937.1   4.05791e-17 
          3939.05  3.860099e-17 
           3941.0  3.178378e-17 
          3942.95  3.496699e-17 
           3944.9   4.07572e-17 
          3946.85   3.53064e-17 
           3948.8  3.733133e-17 
          3950.75  4.046228e-17 
           3952.7  3.642327e-17 
          3954.65  3.952592e-17 
           3956.6  4.434066e-17 
          3958.55  4.429723e-17 
           3960.5  4.103473e-17 
          3962.45     3.818e-17 
           3964.4  3.797098e-17 
          3966.35   3.77064e-17 
           3968.3   3.73301e-17 
          3970.25  3.668275e-17 
           3972.2   3.78763e-17 
          3974.15  4.273462e-17 
           3976.1  3.693922e-17 
          3978.05  3.447854e-17 
           3980.0  3.491723e-17 
          3981.95   3.58946e-17 
           3983.9  3.862758e-17 
          3985.85  3.769859e-17 
           3987.8   3.78579e-17 
          3989.75  4.099329e-17 
           3991.7   4.18112e-17 
          3993.65   4.18425e-17 
           3995.6  3.985873e-17 
          3997.55  3.948868e-17 
           3999.5  4.124014e-17 
          4001.45  3.825034e-17 
           4003.4  3.762847e-17 
          4005.35  4.276557e-17 
           4007.3  4.459294e-17 
          4009.25  4.325541e-17 
           4011.2   4.32471e-17 
          4013.15  3.876659e-17 
           4015.1  3.899464e-17 
          4017.05  3.780185e-17 
           4019.0  3.702347e-17 
          4020.95  4.073795e-17 
           4022.9  4.076471e-17 
          4024.85  4.090496e-17 
           4026.8  3.867359e-17 
          4028.75  4.468385e-17 
           4030.7  4.534512e-17 
          4032.65  4.175861e-17 
           4034.6  4.034969e-17 
          4036.55  3.863579e-17 
           4038.5  3.877541e-17 
          4040.45  4.594929e-17 
           4042.4  3.913168e-17 
          4044.35  4.523456e-17 
           4046.3  5.061418e-17 
          4048.25  4.654513e-17 
           4050.2  4.341771e-17 
          4052.15  5.441275e-17 
           4054.1  4.964114e-17 
          4056.05  4.381814e-17 
           4058.0  4.050042e-17 
          4059.95  4.168282e-17 
           4061.9  4.106747e-17 
          4063.85  4.130196e-17 
           4065.8  4.194068e-17 
          4067.75  4.126546e-17 
           4069.7  4.193492e-17 
          4071.65   4.68581e-17 
           4073.6  4.941407e-17 
          4075.55  4.969577e-17 
           4077.5  4.645853e-17 
          4079.45  4.721695e-17 
           4081.4   4.24452e-17 
          4083.35  4.508599e-17 
           4085.3  4.800349e-17 
          4087.25  4.851946e-17 
           4089.2  5.117691e-17 
          4091.15  4.849757e-17 
           4093.1  4.651257e-17 
          4095.05  4.741623e-17 
           4097.0   4.56546e-17 
          4098.95  4.713621e-17 
           4100.9  4.557172e-17 
          4102.85  5.191168e-17 
           4104.8  5.454545e-17 
          4106.75  4.984747e-17 
           4108.7  5.026691e-17 
          4110.65  5.119183e-17 
           4112.6  5.271059e-17 
          4114.55  5.445205e-17 
           4116.5  5.632342e-17 
          4118.45  5.247626e-17 
           4120.4  4.889656e-17 
          4122.35  4.923277e-17 
           4124.3  5.043606e-17 
          4126.25  5.153058e-17 
           4128.2  5.523429e-17 
          4130.15  4.896819e-17 
           4132.1  4.868031e-17 
          4134.05  5.628694e-17 
           4136.0  6.067736e-17 
          4137.95  5.938306e-17 
           4139.9  5.286499e-17 
          4141.85  5.635278e-17 
           4143.8  6.362102e-17 
          4145.75  5.783798e-17 
           4147.7  5.386671e-17 
          4149.65  5.944277e-17 
           4151.6  5.966663e-17 
          4153.55  5.494864e-17 
           4155.5  5.305453e-17 
          4157.45  4.884466e-17 
           4159.4  4.597018e-17 
          4161.35  5.333781e-17 
           4163.3   5.81096e-17 
          4165.25  6.175546e-17 
           4167.2    6.5185e-17 
          4169.15  6.009467e-17 
           4171.1  5.847062e-17 
          4173.05  5.508158e-17 
           4175.0  5.292489e-17 
          4176.95  5.947486e-17 
           4178.9  6.151913e-17 
          4180.85  6.022202e-17 
           4182.8  5.839249e-17 
          4184.75  6.791133e-17 
           4186.7  6.714007e-17 
          4188.65  6.048845e-17 
           4190.6  5.213447e-17 
          4192.55   5.36699e-17 
           4194.5  5.419845e-17 
          4196.45  5.398509e-17 
           4198.4  5.721679e-17 
          4200.35  5.688188e-17 
           4202.3  5.576582e-17 
          4204.25  5.683804e-17 
           4206.2  5.811906e-17 
          4208.15  5.676702e-17 
           4210.1  6.270441e-17 
          4212.05  6.118714e-17 
           4214.0  5.677696e-17 
          4215.95  6.527295e-17 
           4217.9  6.382357e-17 
          4219.85   5.72841e-17 
           4221.8  5.781755e-17 
          4223.75  5.357878e-17 
           4225.7  5.534306e-17 
          4227.65  5.898354e-17 
           4229.6  5.409608e-17 
          4231.55   5.54134e-17 
           4233.5  6.200606e-17 
          4235.45  6.122456e-17 
           4237.4  6.017454e-17 
          4239.35   5.79451e-17 
           4241.3  5.792608e-17 
          4243.25  5.313405e-17 
           4245.2   5.23364e-17 
          4247.15  5.816098e-17 
           4249.1   5.62001e-17 
          4251.05   5.70359e-17 
           4253.0  5.642622e-17 
          4254.95  6.117654e-17 
           4256.9  5.953752e-17 
          4258.85  6.043061e-17 
           4260.8  5.907684e-17 
          4262.75  6.043598e-17 
           4264.7  6.046495e-17 
          4266.65  6.362669e-17 
           4268.6  6.180495e-17 
          4270.55  6.095216e-17 
           4272.5  7.072565e-17 
          4274.45  6.594013e-17 
           4276.4  6.256279e-17 
          4278.35  6.542884e-17 
           4280.3  7.051438e-17 
          4282.25  6.772198e-17 
           4284.2  6.563859e-17 
          4286.15   6.54136e-17 
           4288.1  6.624938e-17 
          4290.05  6.833086e-17 
           4292.0  7.051355e-17 
          4293.95  7.031968e-17 
           4295.9  6.695438e-17 
          4297.85  6.851667e-17 
           4299.8  6.884084e-17 
          4301.75  6.176397e-17 
           4303.7  6.415277e-17 
          4305.65  6.415227e-17 
           4307.6   6.55736e-17 
          4309.55  6.621204e-17 
           4311.5  7.201906e-17 
          4313.45  7.234774e-17 
           4315.4   6.95858e-17 
          4317.35  7.047069e-17 
           4319.3  6.797591e-17 
          4321.25  7.164434e-17 
           4323.2  6.952172e-17 
          4325.15  6.754745e-17 
           4327.1  6.891396e-17 
          4329.05  6.992651e-17 
           4331.0  7.227223e-17 
          4332.95  7.404127e-17 
           4334.9  7.064254e-17 
          4336.85  6.977064e-17 
           4338.8  7.013747e-17 
          4340.75   7.01466e-17 
           4342.7  7.358879e-17 
          4344.65  7.414328e-17 
           4346.6  7.503727e-17 
          4348.55  6.943013e-17 
           4350.5  7.048786e-17 
          4352.45  6.712076e-17 
           4354.4  6.223401e-17 
          4356.35  7.193171e-17 
           4358.3   7.82507e-17 
          4360.25   7.56931e-17 
           4362.2  7.873611e-17 
          4364.15  7.225326e-17 
           4366.1  7.060742e-17 
          4368.05   7.16891e-17 
           4370.0  6.622455e-17 
          4371.95  6.242898e-17 
           4373.9  6.630961e-17 
          4375.85  7.172478e-17 
           4377.8  7.006428e-17 
          4379.75  6.471258e-17 
           4381.7   6.14479e-17 
          4383.65  6.100217e-17 
           4385.6  6.182047e-17 
          4387.55  6.251282e-17 
           4389.5  6.533837e-17 
          4391.45  6.077422e-17 
           4393.4  6.073697e-17 
          4395.35  5.569663e-17 
           4397.3  4.984294e-17 
          4399.25  5.536462e-17 
           4401.2  5.687417e-17 
          4403.15  5.314322e-17 
           4405.1  5.584325e-17 
          4407.05  5.754277e-17 
           4409.0  4.803286e-17 
          4410.95  5.083057e-17 
           4412.9  5.326682e-17 
          4414.85  4.894531e-17 
           4416.8  4.594041e-17 
          4418.75  5.332492e-17 
           4420.7  5.071948e-17 
          4422.65   4.88672e-17 
           4424.6  5.074218e-17 
          4426.55   5.07818e-17 
           4428.5  5.305673e-17 
          4430.45  4.954996e-17 
           4432.4  4.536517e-17 
          4434.35  4.449422e-17 
           4436.3  5.090273e-17 
          4438.25  4.617073e-17 
           4440.2  4.776647e-17 
          4442.15  4.581066e-17 
           4444.1  4.324562e-17 
          4446.05  4.599308e-17 
           4448.0  4.705955e-17 
          4449.95  4.534211e-17 
           4451.9  5.100165e-17 
          4453.85  4.676134e-17 
           4455.8  4.366225e-17 
          4457.75  4.480235e-17 
           4459.7  4.695352e-17 
          4461.65  4.281675e-17 
           4463.6   5.30785e-17 
          4465.55  4.940133e-17 
           4467.5   4.25584e-17 
          4469.45  5.338803e-17 
           4471.4   4.84297e-17 
          4473.35  5.215614e-17 
           4475.3  5.271812e-17 
          4477.25   5.27671e-17 
           4479.2  5.154706e-17 
          4481.15  5.011087e-17 
           4483.1  5.759035e-17 
          4485.05   5.33337e-17 
           4487.0  5.351419e-17 
          4488.95  5.671593e-17 
           4490.9  5.325148e-17 
          4492.85  5.236687e-17 
           4494.8  5.059592e-17 
          4496.75  5.017129e-17 
           4498.7  4.979054e-17 
          4500.65  4.642777e-17 
           4502.6  5.064945e-17 
          4504.55  4.871183e-17 
           4506.5  5.700806e-17 
