# STATUS =
# OBJECT = 2017egm
# TELESCOPE = Other
# INSTRUMENT = Other
# DATE-OBS = 2017-11-14 00:00:00.00
# MJD = 58071.0
# EXPTIME = --
# AIRMASS = --
# SLIT = --
# DISPERSER = --
# SOURCE = 2018arXiv180800510N
# FILTER =
# RESOLUTION =
# FLUX_STANDARD =
# EXTINCTION_CORRECTED = None
# PHOTOMETRY_CALIBRATED =
# TELLURIC_CORRECTED =
# FLUX_UNITS = erg cm(-2) sec(-1) Ang(-1)
# WAVE_UNITS = Angstrom
# QUALITY = High
# MIN_WAVE = 3825.0
# MAX_WAVE = 9197.42
# COMMENT = Instrument: MMT - Binospec
 Wavelength         Flux 
    3826.29   6.9487e-17 
    3827.58  7.25181e-17 
    3828.87  6.98819e-17 
    3830.16  7.57196e-17 
    3831.45  7.88696e-17 
    3832.74  7.55349e-17 
    3834.03  7.16263e-17 
    3835.32  6.73372e-17 
    3836.61  7.19447e-17 
     3837.9  8.95329e-17 
    3839.19  1.13853e-16 
    3840.48  1.39901e-16 
    3841.77  1.53411e-16 
    3843.06  1.39461e-16 
    3844.35  1.00009e-16 
    3845.64  8.17336e-17 
    3846.93  8.31118e-17 
    3848.22  8.07415e-17 
    3849.51  7.22721e-17 
     3850.8   6.8301e-17 
    3852.09  6.47352e-17 
    3853.38  7.36173e-17 
    3854.67  7.59016e-17 
    3855.96  7.16808e-17 
    3857.26  7.73053e-17 
    3858.55  8.51558e-17 
    3859.84  8.13187e-17 
    3861.13  7.01525e-17 
    3862.42  7.36941e-17 
    3863.71  7.86123e-17 
     3865.0  6.98298e-17 
    3866.29  6.84076e-17 
    3867.58  7.27946e-17 
    3868.87  6.71715e-17 
    3870.16    6.617e-17 
    3871.45   6.9342e-17 
    3872.74  6.61415e-17 
    3874.03   7.3471e-17 
    3875.32  7.75205e-17 
    3876.61  7.47085e-17 
     3877.9  7.04932e-17 
    3879.19  7.15827e-17 
    3880.48  7.56077e-17 
    3881.77  7.41695e-17 
    3883.06  7.46135e-17 
    3884.35  6.56026e-17 
    3885.64  5.78768e-17 
    3886.93  6.12417e-17 
    3888.22  6.59982e-17 
    3889.51  6.70984e-17 
     3890.8  6.82477e-17 
    3892.09  6.69626e-17 
    3893.38  6.16252e-17 
    3894.67  7.04693e-17 
    3895.96  8.16352e-17 
    3897.25  8.03156e-17 
    3898.54  7.11701e-17 
    3899.83  6.96454e-17 
    3901.12  6.83246e-17 
    3902.41  6.23883e-17 
     3903.7  6.94564e-17 
    3904.99  7.40443e-17 
    3906.28  7.57553e-17 
    3907.57  7.49334e-17 
    3908.86  7.38262e-17 
    3910.15  6.77748e-17 
    3911.44  6.19741e-17 
    3912.73   6.3189e-17 
    3914.02  6.32354e-17 
    3915.31  5.89023e-17 
     3916.6  5.65817e-17 
    3917.89  6.49201e-17 
    3919.19  7.51259e-17 
    3920.48  7.28452e-17 
    3921.77  6.93078e-17 
    3923.06  7.18024e-17 
    3924.35  7.35634e-17 
    3925.64  7.34232e-17 
    3926.93  7.66007e-17 
    3928.22  8.05224e-17 
    3929.51  7.98397e-17 
     3930.8  7.03672e-17 
    3932.09   6.3556e-17 
    3933.38  6.36166e-17 
    3934.67  6.70473e-17 
    3935.96   6.5924e-17 
    3937.25  6.90028e-17 
    3938.54  7.51311e-17 
    3939.83  8.20356e-17 
    3941.12  8.38631e-17 
    3942.41  7.67731e-17 
     3943.7  7.02329e-17 
    3944.99  6.79856e-17 
    3946.28  6.82905e-17 
    3947.57  6.88328e-17 
    3948.86  6.79761e-17 
    3950.15  7.06855e-17 
    3951.44  7.43047e-17 
    3952.73  7.94739e-17 
    3954.02  8.13099e-17 
    3955.31  7.63328e-17 
     3956.6  7.26276e-17 
    3957.89  7.44351e-17 
    3959.18  7.97832e-17 
    3960.47  8.47161e-17 
    3961.76   8.1218e-17 
    3963.05  8.27665e-17 
    3964.34   9.0426e-17 
    3965.63  9.25488e-17 
    3966.92  9.17155e-17 
    3968.21  9.29822e-17 
     3969.5  9.41575e-17 
    3970.79  9.78346e-17 
    3972.08  1.00155e-16 
    3973.37  9.76137e-17 
    3974.66  1.01283e-16 
    3975.95  1.04034e-16 
    3977.24  9.99181e-17 
    3978.53  9.93032e-17 
    3979.82  1.04496e-16 
    3981.11  1.04852e-16 
    3982.41   1.0219e-16 
     3983.7  1.04303e-16 
    3984.99  1.11904e-16 
    3986.28  1.21127e-16 
    3987.57  1.23404e-16 
    3988.86  1.16875e-16 
    3990.15  1.10955e-16 
    3991.44  1.08774e-16 
    3992.73  1.10727e-16 
    3994.02  1.09088e-16 
    3995.31  9.89529e-17 
     3996.6  9.38415e-17 
    3997.89  1.01201e-16 
    3999.18   1.0727e-16 
    4000.47  1.02969e-16 
    4001.76  9.63099e-17 
    4003.05  1.05126e-16 
    4004.34  1.16712e-16 
    4005.63  1.21526e-16 
    4006.92  1.16843e-16 
    4008.21  1.08322e-16 
     4009.5  1.05186e-16 
    4010.79  1.07865e-16 
    4012.08  1.13392e-16 
    4013.37  1.19523e-16 
    4014.66  1.27727e-16 
    4015.95  1.25464e-16 
    4017.24    1.187e-16 
    4018.53  1.15345e-16 
    4019.82  1.16785e-16 
    4021.11   1.2186e-16 
     4022.4  1.28442e-16 
    4023.69  1.34445e-16 
    4024.98  1.27635e-16 
    4026.27   1.2482e-16 
    4027.56  1.30599e-16 
    4028.85  1.34152e-16 
    4030.14  1.41594e-16 
    4031.43  1.52817e-16 
    4032.72   1.5221e-16 
    4034.01  1.43467e-16 
     4035.3   1.3838e-16 
    4036.59  1.39367e-16 
    4037.88  1.44275e-16 
    4039.17  1.48217e-16 
    4040.46  1.44478e-16 
    4041.75  1.38423e-16 
    4043.04  1.41206e-16 
    4044.34  1.50975e-16 
    4045.63  1.49379e-16 
    4046.92  1.47438e-16 
    4048.21  1.49089e-16 
     4049.5  1.44085e-16 
    4050.79  1.39898e-16 
    4052.08  1.43328e-16 
    4053.37  1.45512e-16 
    4054.66  1.43771e-16 
    4055.95  1.38491e-16 
    4057.24  1.34813e-16 
    4058.53  1.43528e-16 
    4059.82  1.52192e-16 
    4061.11  1.55387e-16 
     4062.4  1.63355e-16 
    4063.69   1.6341e-16 
    4064.98  1.59751e-16 
    4066.27  1.61032e-16 
    4067.56  1.57829e-16 
    4068.85  1.59983e-16 
    4070.14   1.6662e-16 
    4071.43  1.64054e-16 
    4072.72  1.52287e-16 
    4074.01  1.47552e-16 
     4075.3  1.58106e-16 
    4076.59  1.69241e-16 
    4077.88  1.71631e-16 
    4079.17  1.62945e-16 
    4080.46  1.50217e-16 
    4081.75  1.52889e-16 
    4083.04  1.58099e-16 
    4084.33  1.50121e-16 
    4085.62  1.42841e-16 
    4086.91  1.43311e-16 
     4088.2  1.51633e-16 
    4089.49  1.59316e-16 
    4090.78  1.60775e-16 
    4092.07  1.60629e-16 
    4093.36  1.50673e-16 
    4094.65   1.3792e-16 
    4095.94  1.39812e-16 
    4097.23  1.49486e-16 
    4098.52  1.50459e-16 
    4099.81  1.50608e-16 
     4101.1  1.62928e-16 
    4102.39  1.70314e-16 
    4103.68  1.65648e-16 
    4104.97  1.61437e-16 
    4106.27  1.65241e-16 
    4107.56  1.64269e-16 
    4108.85  1.54262e-16 
    4110.14  1.57615e-16 
    4111.43  1.68064e-16 
    4112.72  1.65252e-16 
    4114.01  1.65735e-16 
     4115.3  1.69322e-16 
    4116.59  1.52763e-16 
    4117.88  1.48843e-16 
    4119.17  1.64754e-16 
    4120.46  1.66359e-16 
    4121.75  1.64455e-16 
    4123.04  1.67313e-16 
    4124.33   1.6881e-16 
    4125.62  1.68256e-16 
    4126.91  1.63586e-16 
     4128.2  1.55858e-16 
    4129.49   1.5708e-16 
    4130.78   1.6629e-16 
    4132.07  1.70577e-16 
    4133.36  1.68436e-16 
    4134.65   1.6581e-16 
    4135.94  1.71447e-16 
    4137.23   1.7528e-16 
    4138.52  1.70168e-16 
    4139.81   1.6755e-16 
     4141.1   1.7027e-16 
    4142.39  1.71106e-16 
    4143.68  1.67504e-16 
    4144.97  1.63634e-16 
    4146.26  1.61634e-16 
    4147.55   1.5728e-16 
    4148.84  1.57389e-16 
    4150.13  1.65296e-16 
    4151.42  1.63976e-16 
    4152.71  1.58225e-16 
     4154.0   1.5949e-16 
    4155.29  1.62718e-16 
    4156.58  1.60863e-16 
    4157.87  1.54445e-16 
    4159.16  1.50957e-16 
    4160.45  1.52129e-16 
    4161.74  1.49252e-16 
    4163.03  1.48285e-16 
    4164.32  1.57286e-16 
    4165.61  1.65135e-16 
     4166.9  1.59319e-16 
    4168.19  1.54274e-16 
    4169.49  1.59654e-16 
    4170.78  1.57486e-16 
    4172.07  1.54584e-16 
    4173.36  1.62442e-16 
    4174.65  1.68357e-16 
    4175.94  1.63427e-16 
    4177.23  1.57648e-16 
    4178.52  1.61323e-16 
    4179.81  1.65301e-16 
     4181.1  1.64613e-16 
    4182.39  1.65412e-16 
    4183.68  1.64148e-16 
    4184.97  1.59738e-16 
    4186.26  1.51428e-16 
    4187.55  1.42274e-16 
    4188.84  1.43324e-16 
    4190.13  1.47605e-16 
    4191.42  1.50317e-16 
    4192.71  1.55469e-16 
     4194.0  1.64829e-16 
    4195.29  1.71467e-16 
    4196.58  1.66985e-16 
    4197.87   1.6048e-16 
    4199.16  1.55262e-16 
    4200.45  1.46416e-16 
    4201.74  1.41518e-16 
    4203.03  1.45394e-16 
    4204.32  1.49843e-16 
    4205.61  1.54065e-16 
     4206.9  1.60171e-16 
    4208.19  1.57007e-16 
    4209.48  1.49887e-16 
    4210.77  1.51816e-16 
    4212.06  1.52538e-16 
    4213.35  1.51451e-16 
    4214.64    1.542e-16 
    4215.93  1.50934e-16 
    4217.22  1.44299e-16 
    4218.51  1.42133e-16 
     4219.8  1.43913e-16 
    4221.09  1.44174e-16 
    4222.38  1.47467e-16 
    4223.67   1.5631e-16 
    4224.96  1.57631e-16 
    4226.25  1.55466e-16 
    4227.54  1.51299e-16 
    4228.83  1.44634e-16 
    4230.12  1.40744e-16 
    4231.42  1.37758e-16 
    4232.71  1.38078e-16 
     4234.0   1.4009e-16 
    4235.29  1.40488e-16 
    4236.58  1.38031e-16 
    4237.87  1.33625e-16 
    4239.16  1.33499e-16 
    4240.45  1.40961e-16 
    4241.74  1.47214e-16 
    4243.03  1.46703e-16 
    4244.32  1.45426e-16 
    4245.61  1.48359e-16 
     4246.9  1.49783e-16 
    4248.19  1.44557e-16 
    4249.48  1.41006e-16 
    4250.77  1.44697e-16 
    4252.06  1.44099e-16 
    4253.35  1.44713e-16 
    4254.64  1.48135e-16 
    4255.93  1.39681e-16 
    4257.22  1.33996e-16 
    4258.51  1.35298e-16 
     4259.8  1.29454e-16 
    4261.09  1.30838e-16 
    4262.38   1.3797e-16 
    4263.67  1.31477e-16 
    4264.96  1.16291e-16 
    4266.25  1.15091e-16 
    4267.54  1.30916e-16 
    4268.83  1.39179e-16 
    4270.12  1.37847e-16 
    4271.41  1.35755e-16 
     4272.7  1.29901e-16 
    4273.99  1.29998e-16 
    4275.28  1.34185e-16 
    4276.57  1.34323e-16 
    4277.86  1.32714e-16 
    4279.15  1.32936e-16 
    4280.44   1.3446e-16 
    4281.73  1.35717e-16 
    4283.02  1.40272e-16 
    4284.31  1.36327e-16 
     4285.6  1.29281e-16 
    4286.89  1.23341e-16 
    4288.18  1.20903e-16 
    4289.47  1.24747e-16 
    4290.76   1.2739e-16 
    4292.05  1.23802e-16 
    4293.34  1.24999e-16 
    4294.64   1.2933e-16 
    4295.93  1.30988e-16 
    4297.22  1.26779e-16 
    4298.51   1.1978e-16 
     4299.8  1.16979e-16 
    4301.09  1.19267e-16 
    4302.38  1.20785e-16 
    4303.67  1.19566e-16 
    4304.96  1.20037e-16 
    4306.25  1.25281e-16 
    4307.54  1.25514e-16 
    4308.83  1.18933e-16 
    4310.12  1.14664e-16 
    4311.41  1.17551e-16 
     4312.7  1.22606e-16 
    4313.99  1.17555e-16 
    4315.28  1.10743e-16 
    4316.57  1.11009e-16 
    4317.86   1.1532e-16 
    4319.15   1.1772e-16 
    4320.44  1.15977e-16 
    4321.73  1.14999e-16 
    4323.02  1.17869e-16 
    4324.31  1.22911e-16 
     4325.6  1.24664e-16 
    4326.89  1.17657e-16 
    4328.18   1.0508e-16 
    4329.47  1.02847e-16 
    4330.76  1.13475e-16 
    4332.05  1.18281e-16 
    4333.34  1.14262e-16 
    4334.63  1.07832e-16 
    4335.92  1.08005e-16 
    4337.21  1.12096e-16 
     4338.5  1.12213e-16 
    4339.79  1.13842e-16 
    4341.08  1.14483e-16 
    4342.37  1.12811e-16 
    4343.66  1.20408e-16 
    4344.95  1.22018e-16 
    4346.24  1.15933e-16 
    4347.53  1.18702e-16 
    4348.82  1.21687e-16 
    4350.11  1.17863e-16 
     4351.4  1.10412e-16 
    4352.69  9.85101e-17 
    4353.98   9.5583e-17 
    4355.27  1.06793e-16 
    4356.57  1.16799e-16 
    4357.86  1.17003e-16 
    4359.15  1.15523e-16 
    4360.44  1.21198e-16 
    4361.73  1.18932e-16 
    4363.02  1.11814e-16 
    4364.31  1.03395e-16 
     4365.6  9.82469e-17 
    4366.89  9.87934e-17 
    4368.18  9.46721e-17 
    4369.47  1.06883e-16 
    4370.76  1.16882e-16 
    4372.05  1.14018e-16 
    4373.34  1.12119e-16 
    4374.63  1.11312e-16 
    4375.92  1.11705e-16 
    4377.21  1.21596e-16 
     4378.5  1.23025e-16 
    4379.79  1.10469e-16 
    4381.08  1.04692e-16 
    4382.37  1.12132e-16 
    4383.66  1.11453e-16 
    4384.95   1.0877e-16 
    4386.24  1.18774e-16 
    4387.53   1.2417e-16 
    4388.82  1.14713e-16 
    4390.11  1.07237e-16 
     4391.4  1.10593e-16 
    4392.69  1.12023e-16 
    4393.98  1.16619e-16 
    4395.27  1.20146e-16 
    4396.56   1.1682e-16 
    4397.85  1.14237e-16 
    4399.14  1.09173e-16 
    4400.43  1.07125e-16 
    4401.72  1.11347e-16 
    4403.01  1.14384e-16 
     4404.3  1.14239e-16 
    4405.59  1.10425e-16 
    4406.88  1.16273e-16 
    4408.17  1.21247e-16 
    4409.46  1.18805e-16 
    4410.75  1.18637e-16 
    4412.04  1.20441e-16 
    4413.33  1.17127e-16 
    4414.62  1.18802e-16 
    4415.91  1.16554e-16 
     4417.2  1.12453e-16 
    4418.49  1.17416e-16 
    4419.79  1.18756e-16 
    4421.08  1.14605e-16 
    4422.37  1.12961e-16 
    4423.66  1.13333e-16 
    4424.95  1.13424e-16 
    4426.24  1.11872e-16 
    4427.53  1.08566e-16 
    4428.82  1.09193e-16 
    4430.11  1.12838e-16 
     4431.4  1.12542e-16 
    4432.69  1.11533e-16 
    4433.98  1.07223e-16 
    4435.27  1.12148e-16 
    4436.56  1.17864e-16 
    4437.85  1.21427e-16 
    4439.14  1.22715e-16 
    4440.43  1.20445e-16 
    4441.72  1.15821e-16 
    4443.01  1.14072e-16 
     4444.3  1.17721e-16 
    4445.59   1.2326e-16 
    4446.88  1.23661e-16 
    4448.17  1.25477e-16 
    4449.46  1.20896e-16 
    4450.75  1.16254e-16 
    4452.04  1.19342e-16 
    4453.33  1.27247e-16 
    4454.62  1.31998e-16 
    4455.91  1.29041e-16 
     4457.2  1.28159e-16 
    4458.49  1.29276e-16 
    4459.78  1.27704e-16 
    4461.07  1.31108e-16 
    4462.36  1.33368e-16 
    4463.65  1.28924e-16 
    4464.94  1.18464e-16 
    4466.23  1.09454e-16 
    4467.52  1.08665e-16 
    4468.81  1.11261e-16 
     4470.1  1.42095e-16 
    4471.39  1.71474e-16 
    4472.68  1.71379e-16 
    4473.97  1.50674e-16 
    4475.26  1.26685e-16 
    4476.55  1.20106e-16 
    4477.84  1.20934e-16 
    4479.13  1.17633e-16 
    4480.42  1.20549e-16 
    4481.72  1.20447e-16 
    4483.01  1.13441e-16 
     4484.3   1.2146e-16 
    4485.59  1.25116e-16 
    4486.88  1.25864e-16 
    4488.17  1.33546e-16 
    4489.46  1.34724e-16 
    4490.75  1.35589e-16 
    4492.04  1.36176e-16 
    4493.33   1.3355e-16 
    4494.62  1.21006e-16 
    4495.91  1.15115e-16 
     4497.2  1.08458e-16 
    4498.49  1.14348e-16 
    4499.78  1.26826e-16 
    4501.07  1.27282e-16 
    4502.36  1.28167e-16 
    4503.65  1.39068e-16 
    4504.94  1.34206e-16 
    4506.23  1.31843e-16 
    4507.52  1.25814e-16 
    4508.81  1.19793e-16 
     4510.1   1.2347e-16 
    4511.39  1.30614e-16 
    4512.68  1.21812e-16 
    4513.97  1.16191e-16 
    4515.26  1.20812e-16 
    4516.55  1.34194e-16 
    4517.84  1.40147e-16 
    4519.13  1.30182e-16 
    4520.42  1.23081e-16 
    4521.71  1.23626e-16 
     4523.0  1.22632e-16 
    4524.29  1.20477e-16 
    4525.58  1.15205e-16 
    4526.87  1.19578e-16 
    4528.16  1.25251e-16 
    4529.45  1.24439e-16 
    4530.74  1.30667e-16 
    4532.03  1.40725e-16 
    4533.32  1.32422e-16 
    4534.61  1.25589e-16 
     4535.9   1.3094e-16 
    4537.19  1.34185e-16 
    4538.48  1.24123e-16 
    4539.77  1.18808e-16 
    4541.06  1.22519e-16 
    4542.35  1.28968e-16 
    4543.65    1.315e-16 
    4544.94  1.32719e-16 
    4546.23  1.34746e-16 
    4547.52  1.36516e-16 
    4548.81  1.35353e-16 
     4550.1  1.37664e-16 
    4551.39  1.31966e-16 
    4552.68  1.31036e-16 
    4553.97  1.23197e-16 
    4555.26  1.13818e-16 
    4556.55  1.16957e-16 
    4557.84  1.23365e-16 
    4559.13  1.25126e-16 
    4560.42  1.18212e-16 
    4561.71  1.19849e-16 
     4563.0  1.27985e-16 
    4564.29  1.27476e-16 
    4565.58  1.21597e-16 
    4566.87  1.11972e-16 
    4568.16  1.12472e-16 
    4569.45  1.25874e-16 
    4570.74  1.32028e-16 
    4572.03  1.37683e-16 
    4573.32  1.37779e-16 
    4574.61  1.33497e-16 
     4575.9  1.28489e-16 
    4577.19   1.2972e-16 
    4578.48  1.29616e-16 
    4579.77  1.20813e-16 
    4581.06  1.19886e-16 
    4582.35  1.31257e-16 
    4583.64  1.33405e-16 
    4584.93   1.2787e-16 
    4586.22  1.29761e-16 
    4587.51  1.29556e-16 
     4588.8  1.29127e-16 
    4590.09  1.33619e-16 
    4591.38   1.3318e-16 
    4592.67   1.2979e-16 
    4593.96  1.28107e-16 
    4595.25  1.30604e-16 
    4596.54  1.32449e-16 
    4597.83  1.37521e-16 
    4599.12  1.37241e-16 
    4600.41  1.35033e-16 
     4601.7  1.33666e-16 
    4602.99  1.37348e-16 
    4604.28  1.41197e-16 
    4605.57  1.38226e-16 
    4606.87  1.30028e-16 
    4608.16  1.25758e-16 
    4609.45  1.30662e-16 
    4610.74  1.33492e-16 
    4612.03  1.35073e-16 
    4613.32  1.38445e-16 
    4614.61    1.385e-16 
     4615.9  1.40427e-16 
    4617.19  1.39399e-16 
    4618.48  1.35458e-16 
    4619.77  1.36344e-16 
    4621.06  1.40288e-16 
    4622.35     1.45e-16 
    4623.64  1.46884e-16 
    4624.93  1.42469e-16 
    4626.22   1.4099e-16 
    4627.51  1.46319e-16 
     4628.8  1.43717e-16 
    4630.09  1.36192e-16 
    4631.38  1.33098e-16 
    4632.67  1.38618e-16 
    4633.96  1.44121e-16 
    4635.25  1.44648e-16 
    4636.54  1.44465e-16 
    4637.83  1.44003e-16 
    4639.12  1.41845e-16 
    4640.41  1.39466e-16 
     4641.7  1.40031e-16 
    4642.99  1.46763e-16 
    4644.28  1.52651e-16 
    4645.57  1.52682e-16 
    4646.86  1.54448e-16 
    4648.15  1.57879e-16 
    4649.44  1.56756e-16 
    4650.73  1.53605e-16 
    4652.02  1.47703e-16 
    4653.31  1.38684e-16 
     4654.6  1.34408e-16 
    4655.89  1.33441e-16 
    4657.18  1.39604e-16 
    4658.47  1.51505e-16 
    4659.76  1.56492e-16 
    4661.05  1.57588e-16 
    4662.34  1.59508e-16 
    4663.63  1.57259e-16 
    4664.92  1.50389e-16 
    4666.21  1.49747e-16 
     4667.5  1.51702e-16 
     4668.8  1.49874e-16 
    4670.09  1.50809e-16 
    4671.38   1.5616e-16 
    4672.67  1.58018e-16 
    4673.96  1.53301e-16 
    4675.25   1.5058e-16 
    4676.54  1.48203e-16 
    4677.83  1.44154e-16 
    4679.12  1.42156e-16 
    4680.41   1.4174e-16 
     4681.7  1.45705e-16 
    4682.99  1.49308e-16 
    4684.28  1.55729e-16 
    4685.57  1.60168e-16 
    4686.86  1.65118e-16 
    4688.15   1.6166e-16 
    4689.44   1.5617e-16 
    4690.73  1.52497e-16 
    4692.02  1.52439e-16 
    4693.31   1.5434e-16 
     4694.6  1.56563e-16 
    4695.89  1.57851e-16 
    4697.18  1.53686e-16 
    4698.47  1.55687e-16 
    4699.76  1.59799e-16 
    4701.05  1.67324e-16 
    4702.34   1.6329e-16 
    4703.63  1.64184e-16 
    4704.92  1.70679e-16 
    4706.21  1.70048e-16 
     4707.5  1.71151e-16 
    4708.79  1.73129e-16 
    4710.08  1.71099e-16 
    4711.37  1.69953e-16 
    4712.66   1.6911e-16 
    4713.95  1.67158e-16 
    4715.24  1.65524e-16 
    4716.53  1.51328e-16 
    4717.82  1.49166e-16 
    4719.11  1.66892e-16 
     4720.4  1.71838e-16 
    4721.69  1.63699e-16 
    4722.98  1.57131e-16 
    4724.27   1.6342e-16 
    4725.56  1.76462e-16 
    4726.85  1.89409e-16 
    4728.14  1.96448e-16 
    4729.43   1.8936e-16 
    4730.72  1.80006e-16 
    4732.02  1.79271e-16 
    4733.31  1.74504e-16 
     4734.6  1.65603e-16 
    4735.89  1.63475e-16 
    4737.18  1.60352e-16 
    4738.47  1.67086e-16 
    4739.76  1.71028e-16 
    4741.05    1.739e-16 
    4742.34   1.8013e-16 
    4743.63  1.79504e-16 
    4744.92  1.71656e-16 
    4746.21  1.79008e-16 
     4747.5  1.80822e-16 
    4748.79  1.79055e-16 
    4750.08   1.8308e-16 
    4751.37  1.77345e-16 
    4752.66   1.6916e-16 
    4753.95  1.67746e-16 
    4755.24  1.78322e-16 
    4756.53  1.77811e-16 
    4757.82  1.76338e-16 
    4759.11  1.64249e-16 
     4760.4  1.68685e-16 
    4761.69  1.70977e-16 
    4762.98   1.6764e-16 
    4764.27  1.80872e-16 
    4765.56  1.84643e-16 
    4766.85  1.80069e-16 
    4768.14  1.75472e-16 
    4769.43  1.69453e-16 
    4770.72  1.68186e-16 
    4772.01  1.70276e-16 
     4773.3  1.70289e-16 
    4774.59  1.68758e-16 
    4775.88  1.67059e-16 
    4777.17   1.7765e-16 
    4778.46  1.78244e-16 
    4779.75  1.74479e-16 
    4781.04  1.73266e-16 
    4782.33  1.73876e-16 
    4783.62  1.73049e-16 
    4784.91  1.69221e-16 
     4786.2  1.65575e-16 
    4787.49  1.74531e-16 
    4788.78  1.65473e-16 
    4790.07    1.533e-16 
    4791.36  1.45068e-16 
