# STATUS =
# OBJECT = 2017egm
# TELESCOPE = Ekar
# INSTRUMENT = AFOSC
# DATE-OBS = 2017-07-18 20:29:02.00
# MJD = 57952.85349539993
# EXPTIME = 1200
# AIRMASS = --
# SLIT = 1.7
# DISPERSER = --
# SOURCE = 2018ApJ...853...57B
# FILTER =
# RESOLUTION =
# FLUX_STANDARD =
# EXTINCTION_CORRECTED = --
# PHOTOMETRY_CALIBRATED =
# TELLURIC_CORRECTED =
# FLUX_UNITS = Other
# WAVE_UNITS = Angstrom
# QUALITY = --
# MIN_WAVE = 3500.2367
# MAX_WAVE = 9295.5576
# COMMENT = [Data obtained from:Bose, S.] [Prev. spec info - createdby: ilanm-UploadSet; modifiedby: ilanm]
 Wavelength        Flux 
  3504.9948   9.0116934 
  3509.7528   7.4160074 
  3514.5109   10.760597 
   3519.269   10.356961 
   3524.027   9.3066065 
  3528.7851   8.7487129 
  3533.5432   12.164775 
  3538.3012   10.549961 
  3543.0593   10.104772 
  3547.8173   8.1960553 
  3552.5754   7.5019048 
  3557.3335   6.9869094 
  3562.0915   9.4478419 
  3566.8496   6.7372212 
  3571.6077   8.6575344 
  3576.3657   6.9645475 
  3581.1238   9.2820922 
  3585.8819   9.9257477 
  3590.6399   6.6020922 
   3595.398   7.5984568 
   3600.156   10.087174 
  3604.9141   8.3160001 
  3609.6722   7.2518102 
  3614.4302   9.1074537 
  3619.1883   7.4884433 
  3623.9464   8.2658175 
  3628.7044   7.9784876 
  3633.4625   9.4509948 
  3638.2205   8.8569339 
  3642.9786   7.6632147 
  3647.7367   7.5399137 
  3652.4947   8.4160417 
  3657.2528   8.7379295 
  3662.0109   7.0990539 
  3666.7689   7.4957726 
   3671.527   7.8742958 
  3676.2851   7.9900684 
  3681.0431   8.7247865 
  3685.8012   8.6193427 
  3690.5592   7.7040932 
  3695.3173   8.2172993 
  3700.0754   7.6639384 
  3704.8334   7.4524579 
  3709.5915   8.8663642 
  3714.3496   8.8816147 
  3719.1076   8.0483232 
  3723.8657    7.736671 
  3728.6237   8.0931098 
  3733.3818    7.620997 
  3738.1399   7.1912909 
  3742.8979   7.6604001 
   3747.656   7.8910036 
  3752.4141   7.4321801 
  3757.1721   8.0198437 
  3761.9302   7.3761073 
  3766.6883   7.8190497 
  3771.4463   8.2331762 
  3776.2044    8.190695 
  3780.9624   7.5147861 
  3785.7205   8.2112555 
  3790.4786   8.5558927 
  3795.2366   7.8168674 
  3799.9947   7.7945699 
  3804.7528   8.3303709 
  3809.5108   7.8357842 
  3814.2689   7.8336394 
  3819.0269   7.4663541 
   3823.785   7.3454796 
  3828.5431   8.4386935 
  3833.3011   8.3146611 
  3838.0592   7.9029309 
  3842.8173   7.4091476 
  3847.5753   7.1185583 
  3852.3334   7.2638885 
  3857.0915   7.3399641 
  3861.8495   6.9929041 
  3866.6076   6.6324757 
  3871.3656   7.1371362 
  3876.1237   7.5071187 
  3880.8818   7.5431584 
  3885.6398    6.992237 
  3890.3979   6.6056515 
   3895.156   6.8802422 
   3899.914   7.0670629 
  3904.6721   6.6653842 
  3909.4301   6.8962918 
  3914.1882   7.2082619 
  3918.9463   6.7194942 
  3923.7043   6.5827028 
  3928.4624   6.5900898 
  3933.2205   6.3936909 
  3937.9785   6.3392695 
  3942.7366   6.4665215 
  3947.4947   6.4244437 
  3952.2527   6.6434234 
  3957.0108   6.5240807 
  3961.7688   6.3483359 
  3966.5269   6.5655962 
   3971.285   6.9897584 
   3976.043   7.0274573 
  3980.8011   6.7106789 
  3985.5592   6.8810486 
  3990.3172   7.4400227 
  3995.0753   7.4319248 
  3999.8333   7.7150957 
  4004.5914   8.0679542 
  4009.3495   7.9575356 
  4014.1075   8.1483541 
  4018.8656   8.0921961 
  4023.6237   7.7003825 
  4028.3817   7.5888851 
  4033.1398   7.7363393 
  4037.8978   7.7533426 
  4042.6559   7.9343029 
   4047.414   8.0989879 
   4052.172   8.1749708 
  4056.9301   8.1308971 
  4061.6882   8.0830959 
  4066.4462   8.0135622 
  4071.2043   7.6921902 
  4075.9624   7.8829909 
  4080.7204   8.1716938 
  4085.4785   8.0246897 
  4090.2365   7.7171747 
  4094.9946   7.5818226 
  4099.7527   7.4706181 
  4104.5107   7.5026868 
  4109.2688   7.5628946 
  4114.0269   7.4100234 
  4118.7849   7.2441333 
   4123.543   7.0031025 
   4128.301   7.3387476 
  4133.0591   7.2080877 
  4137.8172   7.1164688 
  4142.5752   6.9716708 
  4147.3333    6.738588 
  4152.0914   6.9177415 
  4156.8494    7.060167 
  4161.6075   6.8841119 
  4166.3656   7.0896393 
  4171.1236    7.190935 
  4175.8817   7.2073417 
  4180.6397   6.9961262 
  4185.3978    7.055882 
  4190.1559   7.0102475 
  4194.9139   6.9232176 
   4199.672   6.8337463 
  4204.4301   7.0049398 
  4209.1881    7.292546 
  4213.9462   7.2460425 
  4218.7042   7.3217073 
  4223.4623   6.9493521 
  4228.2204   7.0437153 
  4232.9784   6.9925109 
  4237.7365   7.1152917 
  4242.4946   7.2313027 
  4247.2526   7.1271791 
  4252.0107   7.1908372 
  4256.7688   7.0742471 
  4261.5268   6.7849673 
  4266.2849   6.7979221 
  4271.0429    6.615061 
   4275.801   6.7971074 
  4280.5591   7.0403323 
  4285.3171   6.7203578 
  4290.0752   6.3482034 
  4294.8333   6.3803559 
  4299.5913    6.565555 
  4304.3494   6.5422835 
  4309.1074   6.3465353 
  4313.8655    6.215254 
  4318.6236   6.1935419 
  4323.3816   6.1456424 
  4328.1397   6.1666092 
  4332.8978   6.1830628 
  4337.6558   6.0444663 
  4342.4139   6.2621489 
   4347.172   6.1817251 
    4351.93   5.9119144 
  4356.6881   6.2902445 
  4361.4461   5.8787764 
  4366.2042   5.8101645 
  4370.9623   5.9638569 
  4375.7203   6.1391849 
  4380.4784   5.9531488 
  4385.2365   5.7563687 
  4389.9945   5.7673006 
  4394.7526   5.6187842 
  4399.5106   5.4819682 
  4404.2687   5.5334631 
  4409.0268   5.6362542 
  4413.7848   5.4820306 
  4418.5429   5.5894706 
   4423.301   5.6467234 
   4428.059   5.5207761 
  4432.8171   5.4819479 
  4437.5752   5.4371131 
  4442.3332   5.4715581 
  4447.0913   5.5270921 
  4451.8493    5.295771 
  4456.6074   5.1038765 
  4461.3655   5.1444039 
  4466.1235    5.278509 
  4470.8816   5.1534285 
  4475.6397   5.0243622 
  4480.3977   5.0058681 
  4485.1558    5.015866 
  4489.9138    5.120802 
  4494.6719    5.034257 
    4499.43     5.06556 
   4504.188   5.1175639 
  4508.9461   5.0854415 
  4513.7042   5.0922337 
  4518.4622   5.1031067 
  4523.2203   4.9468442 
  4527.9784    5.176752 
  4532.7364   5.3412668 
  4537.4945   5.2147693 
  4542.2525   5.2359732 
  4547.0106   5.0777206 
  4551.7687   5.0361251 
  4556.5267   5.2056733 
  4561.2848   5.1252747 
  4566.0429   5.1011204 
  4570.8009   5.1839855 
   4575.559   5.2312551 
   4580.317    5.214747 
  4585.0751   5.2634055 
  4589.8332   5.3893762 
  4594.5912   5.2748452 
  4599.3493   5.2771173 
  4604.1074   5.2999046 
  4608.8654   5.3537296 
  4613.6235   5.5117947 
  4618.3816   5.5991053 
  4623.1396     5.36787 
  4627.8977   5.2720137 
  4632.6557    5.449422 
  4637.4138   5.4889101 
  4642.1719   5.2866861 
  4646.9299   5.5036058 
   4651.688   5.3704203 
  4656.4461   5.5103549 
  4661.2041   5.5449609 
  4665.9622   5.4131321 
  4670.7202   5.4509783 
  4675.4783   5.4560547 
  4680.2364   5.4400667 
  4684.9944   5.4641393 
  4689.7525   5.5940073 
  4694.5106   5.5076349 
  4699.2686   5.5583284 
  4704.0267   5.5740736 
  4708.7848   5.3776456 
  4713.5428   5.3748912 
  4718.3009   5.3325692 
  4723.0589   5.3513917 
   4727.817   5.4008142 
  4732.5751   5.3821493 
  4737.3331   5.3259463 
  4742.0912    5.474813 
  4746.8493   5.6828284 
  4751.6073   5.5624579 
  4756.3654   5.4023487 
  4761.1234    5.448852 
  4765.8815   5.4217696 
  4770.6396   5.4544461 
  4775.3976   5.3665483 
  4780.1557   5.2599844 
  4784.9138   5.1824783 
  4789.6718   5.0524681 
  4794.4299   5.1415773 
   4799.188    5.230878 
   4803.946   4.9828637 
  4808.7041    4.989264 
  4813.4621   5.0338042 
  4818.2202   5.0353917 
  4822.9783   4.9523677 
  4827.7363   4.8778871 
  4832.4944   4.8284791 
  4837.2525    4.936264 
  4842.0105   4.8771627 
  4846.7686   4.7734097 
  4851.5266   4.7151401 
  4856.2847    4.787778 
  4861.0428   4.8396606 
  4865.8008   4.6793213 
  4870.5589   4.7804235 
   4875.317   4.8828889 
   4880.075   4.7250684 
  4884.8331   4.6372456 
  4889.5912   4.5912805 
  4894.3492   4.5795334 
  4899.1073   4.6530825 
  4903.8653   4.5874898 
  4908.6234   4.4984357 
  4913.3815   4.4548862 
  4918.1395   4.4431019 
  4922.8976    4.397559 
  4927.6557   4.3251513 
  4932.4137   4.3377414 
  4937.1718   4.2879729 
  4941.9298   4.2348247 
  4946.6879   4.2375094 
   4951.446   4.2782943 
   4956.204   4.3360292 
  4960.9621   4.3929362 
  4965.7202   4.3380652 
  4970.4782   4.2786293 
  4975.2363   4.3722108 
  4979.9944   4.4549895 
  4984.7524   4.4134433 
  4989.5105   4.2849333 
  4994.2685   4.0024898 
  4999.0266   4.0694936 
  5003.7847   3.8927535 
  5008.5427   3.8986065 
  5013.3008   4.1003038 
  5018.0589   3.9852744 
  5022.8169   3.7957161 
   5027.575   3.7803986 
   5032.333   3.7049489 
  5037.0911   3.5683906 
  5041.8492   3.6761359 
  5046.6072   3.8230637 
  5051.3653   3.8109253 
  5056.1234   3.8283735 
  5060.8814   3.8418882 
  5065.6395    3.921259 
  5070.3976    4.016041 
  5075.1556   4.0197012 
  5079.9137   4.0664574 
  5084.6717    4.175185 
  5089.4298    4.069629 
  5094.1879    4.107226 
  5098.9459   4.0758562 
   5103.704   4.0029465 
  5108.4621   4.1015877 
  5113.2201   4.2242675 
  5117.9782   4.1948931 
  5122.7362    4.108003 
  5127.4943   4.0869739 
  5132.2524   4.0401492 
  5137.0104   4.1461299 
  5141.7685   4.1214579 
  5146.5266   4.1044691 
  5151.2846   4.1913352 
  5156.0427   4.2197315 
  5160.8008    4.139414 
  5165.5588   4.1294794 
  5170.3169   4.1066013 
  5175.0749   4.0123523 
   5179.833    3.966381 
  5184.5911   4.0020646 
  5189.3491   3.9970564 
  5194.1072   4.0427982 
  5198.8653   4.0608562 
  5203.6233   3.9999722 
  5208.3814   4.0778163 
  5213.1394   4.1718156 
  5217.8975    4.126848 
  5222.6556    4.094904 
  5227.4136   4.1632389 
  5232.1717   4.1393943 
  5236.9298   4.0705714 
  5241.6878   4.0552545 
  5246.4459   4.1141237 
  5251.2039   4.1480625 
   5255.962   4.2262191 
  5260.7201   4.2339394 
  5265.4781   4.1785717 
  5270.2362   4.1769757 
  5274.9943   4.2395457 
  5279.7523   4.2400399 
  5284.5104   4.1567128 
  5289.2685   4.1126381 
  5294.0265   4.2173756 
  5298.7846   4.3240373 
  5303.5426   4.2207872 
  5308.3007   4.1360102 
  5313.0588   4.1666954 
  5317.8168   4.1351576 
  5322.5749   4.1790356 
   5327.333    4.191008 
   5332.091   4.1739098 
  5336.8491    4.205315 
  5341.6071   4.1812386 
  5346.3652   4.2137018 
  5351.1233   4.2660888 
  5355.8813    4.213929 
  5360.6394   4.1443747 
  5365.3975   4.1122976 
  5370.1555   4.1553144 
  5374.9136   4.1925507 
  5379.6717    4.158103 
  5384.4297   4.0918576 
  5389.1878   4.0904926 
  5393.9458   4.1942509 
  5398.7039    4.109883 
   5403.462   4.0467118 
    5408.22   3.9899543 
  5412.9781   3.9753138 
  5417.7362   3.9409242 
  5422.4942   3.8886969 
  5427.2523    3.891046 
  5432.0103   3.7903595 
  5436.7684   3.7215366 
  5441.5265   3.6568035 
  5446.2845   3.6753272 
  5451.0426   3.6001073 
  5455.8007    3.536153 
  5460.5587   3.5703047 
  5465.3168   3.5023922 
  5470.0749   3.4337517 
  5474.8329   3.4476082 
   5479.591   3.4913413 
   5484.349   3.5630409 
  5489.1071    3.551714 
  5493.8652   3.5299301 
  5498.6232   3.5674228 
  5503.3813   3.4867672 
  5508.1394   3.5212594 
  5512.8974     3.58449 
  5517.6555   3.5973084 
  5522.4135   3.5820062 
  5527.1716   3.5404119 
  5531.9297   3.5750207 
  5536.6877   3.6094009 
  5541.4458   3.5836821 
  5546.2039   3.5305841 
  5550.9619   3.5994734 
    5555.72   3.6273622 
  5560.4781   3.5987053 
  5565.2361   3.6144935 
  5569.9942   3.6739495 
  5574.7522    3.578423 
  5579.5103   3.4680801 
  5584.2684   3.4367065 
  5589.0264   3.4281396 
  5593.7845   3.5572104 
  5598.5426   3.5454402 
  5603.3006   3.4663467 
  5608.0587   3.4051609 
  5612.8167   3.4780508 
  5617.5748   3.4746435 
  5622.3329   3.3883251 
  5627.0909   3.3846521 
   5631.849    3.329032 
  5636.6071   3.3097566 
  5641.3651   3.2505727 
  5646.1232   3.1846729 
  5650.8813   3.2295697 
  5655.6393   3.2637363 
  5660.3974   3.2428619 
  5665.1554   3.2139173 
  5669.9135   3.1326534 
  5674.6716   3.0749575 
  5679.4296   3.1221041 
  5684.1877   3.1505335 
  5688.9458   3.0610676 
  5693.7038   3.0241752 
  5698.4619   3.1217967 
  5703.2199    3.196648 
   5707.978   3.1371582 
  5712.7361   3.1893688 
  5717.4941   3.2820453 
  5722.2522    3.296853 
  5727.0103   3.2916805 
  5731.7683   3.2605312 
  5736.5264   3.2935715 
  5741.2845   3.2944607 
  5746.0425   3.2670561 
  5750.8006   3.2620993 
  5755.5586    3.302071 
  5760.3167     3.30979 
  5765.0748   3.3091678 
  5769.8328   3.2838326 
  5774.5909   3.2470064 
   5779.349   3.1875348 
   5784.107   3.1861957 
  5788.8651   3.2103338 
  5793.6231   3.1946008 
  5798.3812   3.1803422 
  5803.1393   3.2282282 
  5807.8973   3.2596861 
  5812.6554   3.1912007 
  5817.4135   3.1140163 
  5822.1715   3.1384799 
  5826.9296   3.1796135 
  5831.6877   3.1782502 
  5836.4457   3.1406383 
  5841.2038   3.1222791 
  5845.9618   3.0508844 
  5850.7199   3.0470994 
   5855.478   3.0594736 
   5860.236   3.1121344 
  5864.9941   3.1995602 
  5869.7522   3.1901136 
  5874.5102   3.1480631 
  5879.2683   3.0797292 
  5884.0263   2.9371784 
  5888.7844   2.8727474 
  5893.5425   2.8731498 
  5898.3005   2.8744167 
  5903.0586   2.8778456 
  5907.8167   2.8688774 
  5912.5747   2.8872164 
  5917.3328   2.9019131 
  5922.0909   2.9440131 
  5926.8489   2.9799905 
   5931.607   2.9273634 
   5936.365     2.88624 
  5941.1231   2.8690263 
  5945.8812   2.8850382 
  5950.6392   2.8944295 
  5955.3973   2.9377818 
  5960.1554   2.9616992 
  5964.9134   2.9911882 
  5969.6715   3.0085444 
  5974.4295   3.0049053 
  5979.1876   3.0150818 
  5983.9457   2.9784137 
  5988.7037   2.9466153 
  5993.4618   2.9919606 
  5998.2199   3.0330149 
  6002.9779   3.0407305 
   6007.736   2.9637119 
  6012.4941   3.0183979 
  6017.2521   3.1304018 
  6022.0102   3.1415964 
  6026.7682   3.1251083 
  6031.5263   3.0426354 
  6036.2844   2.9715364 
  6041.0424   3.0217046 
  6045.8005   3.1615584 
  6050.5586   3.1690903 
  6055.3166   3.1045091 
  6060.0747   3.0766447 
  6064.8327   3.0675594 
  6069.5908   3.0472135 
  6074.3489   3.0292975 
  6079.1069   3.0942776 
   6083.865   3.1633157 
  6088.6231   3.0956639 
  6093.3811   3.0548601 
  6098.1392   3.1318355 
  6102.8973   3.1811902 
  6107.6553    3.142911 
  6112.4134   2.9769168 
  6117.1714   2.9432218 
  6121.9295   2.9933765 
  6126.6876   2.9117316 
  6131.4456   2.9266754 
  6136.2037   2.9030225 
  6140.9618   2.9283296 
  6145.7198   2.9279099 
  6150.4779   2.8672029 
  6155.2359   2.8518235 
   6159.994   2.9380627 
  6164.7521   2.9238853 
  6169.5101   2.8340469 
  6174.2682   2.7925443 
  6179.0263   2.8179348 
  6183.7843     2.80875 
  6188.5424   2.7723311 
  6193.3005   2.7829523 
  6198.0585   2.8250206 
  6202.8166    2.848631 
  6207.5746   2.8249165 
  6212.3327   2.8313032 
  6217.0908   2.8835608 
  6221.8488   2.8262069 
  6226.6069   2.7544515 
   6231.365   2.7927002 
   6236.123   2.8301068 
  6240.8811   2.7571759 
  6245.6391   2.7573194 
  6250.3972    2.742868 
  6255.1553    2.760439 
  6259.9133   2.8299906 
  6264.6714   2.6919899 
  6269.4295   2.5881718 
  6274.1875   2.5428811 
  6278.9456   2.4300096 
  6283.7037   2.4209081 
  6288.4617   2.4345803 
  6293.2198   2.3767722 
  6297.9778   2.3888284 
  6302.7359   2.3627006 
   6307.494   2.2683416 
   6312.252   2.2955311 
  6317.0101   2.3219748 
  6321.7682   2.3722486 
  6326.5262   2.3641697 
  6331.2843   2.2760842 
  6336.0423   2.2761464 
  6340.8004   2.2942724 
  6345.5585   2.3171665 
  6350.3165   2.3140426 
  6355.0746   2.2876882 
  6359.8327   2.2646381 
  6364.5907   2.2614909 
  6369.3488   2.2307433 
  6374.1069   2.2504238 
  6378.8649   2.3131812 
   6383.623   2.3969793 
   6388.381   2.4247545 
  6393.1391    2.372381 
  6397.8972   2.3849954 
  6402.6552   2.4340835 
  6407.4133   2.4843442 
  6412.1714   2.5376597 
  6416.9294    2.515422 
  6421.6875   2.5405278 
  6426.4455   2.5651406 
  6431.2036   2.6536159 
  6435.9617   2.7325559 
  6440.7197   2.6856461 
  6445.4778    2.653368 
  6450.2359   2.7116604 
  6454.9939   2.7571663 
   6459.752   2.7777269 
  6464.5101   2.7386698 
  6469.2681   2.6798608 
  6474.0262   2.6429303 
  6478.7842   2.6289263 
  6483.5423   2.6046653 
  6488.3004   2.6276714 
  6493.0584   2.6718691 
  6497.8165   2.6924654 
  6502.5746   2.7957374 
  6507.3326   2.8363569 
  6512.0907   2.7311859 
  6516.8487   2.6640259 
  6521.6068   2.7151128 
  6526.3649   2.7605811 
  6531.1229   2.7360116 
   6535.881   2.7125531 
  6540.6391   2.6808088 
  6545.3971   2.6249086 
  6550.1552   2.6381675 
  6554.9132   2.6366738 
  6559.6713   2.6441804 
  6564.4294   2.6827658 
  6569.1874   2.6497249 
  6573.9455   2.6864733 
  6578.7036   2.7514124 
  6583.4616   2.7156027 
  6588.2197   2.6547804 
  6592.9778   2.7020902 
  6597.7358    2.759176 
  6602.4939    2.766832 
  6607.2519   2.7225684 
    6612.01   2.6728673 
  6616.7681   2.7015782 
  6621.5261   2.7447705 
  6626.2842   2.7344643 
  6631.0423   2.7314051 
  6635.8003   2.7173069 
  6640.5584   2.6430242 
  6645.3164   2.6373989 
  6650.0745   2.6357327 
  6654.8326   2.6442991 
  6659.5906   2.6258156 
  6664.3487   2.7025241 
  6669.1068   2.7408156 
  6673.8648   2.7106572 
  6678.6229   2.7328476 
   6683.381   2.7533825 
   6688.139    2.727219 
  6692.8971   2.6890688 
  6697.6551   2.7135338 
  6702.4132   2.7634724 
  6707.1713   2.7175773 
  6711.9293   2.7173634 
  6716.6874   2.7355411 
  6721.4455   2.7582283 
  6726.2035   2.7731826 
  6730.9616   2.7828458 
  6735.7196   2.7744688 
  6740.4777    2.776881 
  6745.2358   2.8111301 
  6749.9938   2.8192845 
  6754.7519   2.8511662 
    6759.51   2.9446749 
   6764.268   2.9995382 
  6769.0261   2.8908092 
  6773.7842   2.8085046 
  6778.5422   2.8158053 
  6783.3003   2.7817531 
  6788.0583   2.7833525 
  6792.8164   2.8016355 
  6797.5745   2.7689851 
  6802.3325   2.7159593 
  6807.0906   2.6897502 
  6811.8487   2.7243391 
  6816.6067   2.7029197 
  6821.3648    2.676882 
  6826.1228   2.6630551 
  6830.8809   2.6637861 
   6835.639   2.6730113 
   6840.397    2.651736 
  6845.1551   2.6577695 
  6849.9132   2.6981086 
  6854.6712   2.6607987 
  6859.4293   2.6266287 
  6864.1874   2.6729835 
  6868.9454   2.7370033 
  6873.7035   2.7404712 
  6878.4615   2.7577792 
  6883.2196   2.8190041 
  6887.9777   2.9181465 
  6892.7357    2.897824 
  6897.4938   2.7453402 
  6902.2519   2.6453976 
  6907.0099   2.5975723 
   6911.768    2.555669 
   6916.526   2.5751923 
  6921.2841   2.5088644 
  6926.0422   2.3670979 
  6930.8002   2.3282786 
  6935.5583   2.2746434 
  6940.3164   2.2162977 
  6945.0744    2.190497 
  6949.8325   2.1930186 
  6954.5906   2.2390314 
  6959.3486   2.2710713 
  6964.1067   2.3120022 
  6968.8647    2.335387 
  6973.6228   2.3115411 
  6978.3809   2.2866932 
  6983.1389   2.2831593 
   6987.897   2.2141019 
  6992.6551    2.122904 
  6997.4131   2.1026933 
  7002.1712   2.1195275 
  7006.9292   2.1265128 
  7011.6873   2.0892137 
  7016.4454   2.1237771 
  7021.2034   2.1551318 
  7025.9615   2.1246664 
  7030.7196   2.1576358 
  7035.4776    2.224953 
  7040.2357   2.1726349 
  7044.9938   2.1112639 
  7049.7518   2.1642514 
  7054.5099   2.1350379 
  7059.2679   2.0819902 
   7064.026   2.1555624 
  7068.7841   2.1587068 
  7073.5421   2.1667372 
  7078.3002   2.1681181 
  7083.0583   2.1487479 
  7087.8163   2.1712593 
  7092.5744   2.1573824 
  7097.3324   2.1184009 
  7102.0905   2.1039377 
  7106.8486   2.1522513 
  7111.6066   2.2463979 
  7116.3647   2.2395888 
  7121.1228   2.2008866 
  7125.8808   2.2300069 
  7130.6389    2.231046 
   7135.397   2.1986624 
   7140.155   2.1803887 
  7144.9131   2.0977348 
  7149.6711    2.072605 
  7154.4292   2.1063549 
  7159.1873   2.1060095 
  7163.9453   2.0361232 
  7168.7034    1.925619 
  7173.4615   1.8056451 
  7178.2195    1.756012 
  7182.9776    1.758869 
  7187.7356   1.7546922 
  7192.4937   1.6755565 
