 texplosion  fnickel    Pspin  log(Bfield)      Mns  thetaPB   mejecta    kappa  kappagamma     vejecta  temperature    alpha  cutoff_wavelength  log(nhhost)      A_V         MJD0   kenergy  mnickel             TSD   log(L0)  Peak_mag     Peak_MJD  log(E_rad)  log(Peak_lum)  Rise_Time     E_fold  tau_1  delta_m15     r_peak     frac 
  -22.74148  0.00438  0.94271     13.75187  1.58245  1.51997   45.9102  0.04917     0.06409  2866.12492   9031.01906  1.10829         5191.17985     17.07823    7e-05  60199.13433   2.24971    0.201    409402.21118  46.90727  18.85958  60309.04971    51.59796       44.54015   52.36704   90.83123   95.0    0.03571  -21.75451  0.99893 
  -29.43278  0.00308  1.81782     14.01336  1.94902  0.67088  18.40221  0.19907     0.33516  4581.09682   7492.42794   0.9975         4672.07177     19.64763  0.02468  60192.44303   2.30375  0.05676     562353.2204  46.28955  18.90781  60310.20291    51.48293       44.36493   92.31743   98.19592   96.5      0.038  -21.80154  0.99916 
  -24.16826  0.01223  1.64418      13.7569   1.5838  1.23525  27.16625  0.18465     0.05809  5824.13115   7419.53912  1.82582         3828.83763     16.57126    2e-05  60197.70755   5.49692  0.33218   1217935.07615  45.95102   18.9474  60287.72587    51.36201       44.25753   66.00102  103.97059   92.5    0.04137  -21.75955  0.99457 
  -27.83142  0.02729  1.49177     13.80598  1.72362  1.23827  71.08529  0.03831     0.03159  3894.35877   9650.82022  0.83949         5387.41453     16.95288    5e-05  60194.04439     6.431  1.93958    870374.15824  46.21818  18.93854  60306.99191    51.54517       44.46572   62.47799   94.63548   86.5    0.03943  -21.76824  0.97747 
  -32.21952  0.00274  1.13832     13.70403   1.5099  1.27917  21.77426  0.32983     0.46626  7244.76697   6964.37954  0.50153         2142.94913     19.56321  0.02032  60189.65629   6.81741  0.05957    709951.84486  46.48404  18.90815  60306.99191    51.54883       44.45042   55.71849  107.11897   88.0    0.04124   -21.8571   0.9995 
   -33.7978  0.05512  2.06208     13.66859   1.6911  1.39099  16.42147  0.13447     0.31425  4360.89461   8403.01605  0.68999         5226.44953     16.29211    1e-05  60188.07801    1.8629  0.90512   3072007.15724  45.38098  18.86375   60303.7809    51.49986       44.39266   65.55369   96.46958   93.5    0.04679  -21.72591  0.97892 
  -46.23008  0.00105  2.10259     13.41521  1.52066  1.02628  13.10588  0.27075     0.01749  5623.54499   6705.21441  4.28092         2905.15533     18.43165   0.0015  60175.64573   2.47237   0.0137   9224484.99267  44.84043   18.9158  60302.36875    51.54346        44.4632   60.76841   93.28613   96.0    0.04435  -21.76585  0.99957 
  -29.20031   0.0469  2.29217     13.77397  1.57072  0.60071   9.42465  0.29795      0.0949  6740.04961   6736.16354  3.37202         2654.66374     16.40406    1e-05   60192.6755   2.55399  0.44205   2170054.18152  45.40798  18.90453  60310.20291     51.5217       44.41845   67.02942  103.62473   99.0     0.0531  -21.80542  0.98532 
  -44.19099  0.22162  2.27991     13.80188  1.76231   0.4456  10.88868  0.30481     0.01622  5251.03576   7250.76034   3.8006          3385.1813     20.41931  0.14589  60177.68482   1.79099  2.41313   2118212.21571  45.47312  18.96203  60302.36875    51.42167       44.30827   87.40763   98.19592   92.5    0.04689  -21.93179  0.93431 
  -37.04117   0.0074  2.67666     14.16233  1.76399  0.21874  13.86539  0.15426     0.03275   5809.7468   6614.50461    2.698         3369.93039     17.98541  0.00054  60184.83464   2.79173  0.10256    555701.89529  45.91531  18.91543   60303.7809    51.35791        44.2461   81.01164  100.65082  110.0    0.05027  -21.74137  0.99589 
  -26.48594  0.01704   1.3425      13.7889   1.7342   1.4089  96.60924  0.02437     0.12679  3312.43241   8876.63465   0.9417         5698.75171     17.47247  0.00016  60195.38987   6.32324  1.64595    767246.18758  46.36718  18.88748   60303.7809    51.42839       44.33328   81.01164   93.28613   94.5    0.03854  -21.80577  0.98458 
   -24.1104  0.01865   0.7577     13.93494  1.81536  1.55844  42.89765  0.26809     0.11337  9615.97724   7142.57899  0.23046          2449.4058     19.55031  0.01973  60197.76542  23.66179  0.80001    130587.35324  47.65291  18.89502  60306.99191     51.4955       44.39921   52.73016  109.36487   87.5    0.04962  -21.91992  0.99786 
  -36.79647  0.00952  1.57304     13.52636  1.37666  1.51486  25.58658  0.16079     0.09312  6260.73898   6954.81136  0.20525         5004.35375     18.07753  0.00066  60185.07934   5.98261   0.2436   2801503.30352   45.5668  18.87451  60306.99191    51.41151       44.33113   83.46653   88.37633   91.5    0.04652  -21.82162  0.99545 
  -22.03178  0.00783  0.80365     13.99858  1.97229  1.27769  40.54356  0.19353     0.10794  6850.45244   7923.99645  0.49537         5543.51863     19.55242  0.01982  60199.84403  11.34978  0.31758    119058.21297  47.67793  18.95552  60306.99191    51.49432        44.3989   54.00776  105.56062   86.0    0.03845  -21.91617  0.99915 
  -34.93094  0.00645  1.44627     13.69505   1.5674  1.07547  40.60985  0.12246     0.01316  5856.45045   6882.13727   0.2728         4853.85318     17.70969  0.00028  60186.94487   8.30859  0.26182   1239908.22876  46.05014  18.93018  60306.99191    51.57791       44.50734   56.46266   90.83123   90.0    0.03886  -21.82683  0.99662 
  -25.61416  0.00121  0.72157      13.9417  1.73829  0.99262  45.03285  0.12306     0.06782  5439.09746   7483.01507  0.40201         5179.28611     16.66086    3e-05  60196.26165   7.94713   0.0547    109927.07076   47.7513   18.8859  60310.06361    51.61302        44.5294   66.18426   98.29391   88.0    0.03247  -21.83702  0.99986 
  -29.96564  0.03601  2.14451     13.78781  1.86075  1.26973  25.16208  0.11324     0.02062  4024.74022   7862.68023  1.87391          4005.8199     18.53979  0.00193  60191.91017   2.43136   0.9061   2111258.38149  45.55134  18.87676  60313.41392    51.47875       44.38586   81.01164   93.28613  101.5    0.04021  -21.69537  0.98031 
  -24.64969  0.00117  1.75158     13.84869   1.9302  1.33343  36.16512   0.0925      0.0162  4001.32401   7465.80803  1.89613         3887.05455     19.10574  0.00709  60197.22612   3.45402   0.0423   1103832.31458  46.02468  18.90684  60309.04971    51.69394       44.64433   49.84337   92.54072  101.5    0.03591  -21.71279  0.99941 
  -31.22236  0.49509  2.31495     14.05969  1.69742  0.61427  18.00937  0.17135     0.03453  5367.57494    7335.4156  1.22342         4056.49938     18.80996  0.00359  60190.65346   3.09515  8.91618    641649.83258  45.96225  18.88656  60313.41392    51.53231       44.45088   71.19204   94.55231   98.5    0.04409  -21.72953  0.79161 
   -22.5997  0.12668  1.55342     13.95872   1.8143  0.97735  60.17847  0.03482     0.03354  4063.01502   8840.95648   0.8954         5407.18913     20.01796   0.0579  60199.27611   5.92605  7.62355    491667.26345  46.45331  18.88269  60313.41392    51.49304       44.38462   87.67157   95.83902   92.0     0.0476   -21.8706  0.91683 
  -21.08645  0.00131  1.11655     13.79394  1.61475  1.29442  85.94128  0.02478     0.01036  2639.28379   9137.51819   1.5697         4437.16828     19.63069  0.02374  60200.78936   3.57109  0.11224    482828.26403   46.6974  18.94938  60309.04971    51.53039       44.44504   52.36704  100.65082   99.0    0.03259  -21.62827  0.99918 
  -37.71306  0.00351  2.28853     13.45102  1.51794  1.47995  13.11445  0.18928     0.03044  5665.04822   7035.07762    2.042         3344.35336     17.81623  0.00036  60184.16275   2.51064  0.04606   9249851.58216  44.76485  18.90134  60302.36875    51.52592       44.43983   64.57452   87.62916   99.5    0.04841  -21.73387  0.99835 
  -35.15555  0.00705  2.63034     13.56154  1.80615  0.81883  10.74221  0.14995     0.02771  6401.05588   7283.91049  2.80722          2852.4074     18.01803  0.00058  60186.72026   2.62557   0.0757   8739883.78607  44.74407  18.88705  60309.04971    51.50281       44.42458   46.64306  105.56062   99.0    0.05561  -21.75212  0.99707 
  -24.67123  0.04773  2.20718     14.25278    1.699  0.26537  16.93407  0.25833      0.0205  6042.87657   7344.61234  3.89201         3605.14139     17.79283  0.00034  60197.20458   3.68872  0.80819    239949.37981  46.43124  18.89989  60309.04971    51.55611       44.48785   54.00776   98.19592   87.0    0.04449  -21.87271  0.97854 
  -31.76504  0.44621  2.39265     13.75449  1.69831  0.97085  14.81891  0.12943     0.02031  4608.79795   7950.34602  0.82519         4359.09855     19.73412  0.03012  60190.11077   1.87767  6.61239   2796432.40755   45.2945  18.91892  60306.99191    51.39207       44.26749   96.90479   98.19592   98.0    0.04645  -21.73182  0.82509 
  -35.13952  0.00123  1.55938     13.56559  1.61546  1.46348  16.46771  0.17679     0.04783  5069.54513   8249.21986  0.63176         4639.96711     20.66026  0.25409  60186.73629   2.52463  0.02031   2696678.67622  45.66041  18.89059  60310.20291    51.61755       44.53314    57.5682   97.09038   92.5    0.04479  -22.01723  0.99971 
  -32.29969  0.09942  2.30395     13.73358  1.69483  0.67769  13.33287  0.18172     0.02075  5584.48805   6759.77855  4.59578         2509.10395     18.50086  0.00176  60189.57613   2.48038  1.32556   2849291.39433  45.31829  18.94752  60302.36875    51.56006       44.43051   71.42573   98.19592   95.0    0.04706  -21.79478  0.96109 
  -35.99517  0.32466  1.73511     13.90191  1.48503  0.50152  13.73744  0.26766      0.0153  4791.36086   7532.09657  0.89727         4183.09943     18.33658  0.00121  60185.88064   1.88127  4.45997    652199.79278  46.14755  18.93257  60309.04971    51.50188       44.40689   56.46266  100.65082   88.0    0.03258  -21.76726  0.91666 
  -32.05777  0.00226  2.41478     13.73238  1.65074  0.83977  17.22642  0.12541     0.04134  4712.45542   7298.96043  2.01788         3712.73896     16.86977    4e-05  60189.81805   2.28201   0.0389   3065416.59986  45.23428  18.92388  60306.99191    51.46845       44.37815   66.52222   96.76723  103.5    0.05055  -21.68081  0.99866 
   -26.3482  0.05198  1.95111     13.69635  1.62692  1.30426  47.52584   0.0445     0.01129  3826.40992   7388.00122  1.50937          4030.5463     16.66136    3e-05  60195.52761   4.15088  2.47052   2328321.21722  45.53261  18.84171  60306.99191     51.4379       44.35725   83.46653   88.37633  103.0    0.04325  -21.69828  0.94747 
   -29.3956  0.01196  1.23312     13.86255  1.79757  1.50168  80.08862  0.06306     0.01992  5540.67784   8116.45324  0.48619         5295.40295     16.85853    4e-05  60192.48021  14.66641  0.95794    477994.19677   46.6621  18.82365  60309.04971    51.55881       44.49664   46.64306  100.65082   85.5    0.03928  -21.77881   0.9928 
  -26.39492  0.02161  0.95753     13.90949  1.80826  1.45151  83.28117  0.06297      0.2016  5114.22118   8431.06731   0.7448         5728.83089     17.87178  0.00041  60195.48089  12.99371  1.79977    233561.36577   47.1954  18.93871  60306.99191    51.57243       44.50831   49.93039   94.90859   91.0    0.03628  -21.85732  0.99204 
  -28.21053  0.06249  2.04588     13.66933  1.44933  1.01794  32.99794  0.06063     0.14889  3936.80559   7787.21108  1.90958         4099.24407     17.41689  0.00015  60193.66529   3.05072  2.06196   2582708.62877  45.39618  18.91185  60298.40281    51.47519       44.38716   76.10184   95.74102  101.0     0.0485  -21.70336  0.94258 
  -48.82142  0.30363  1.91548     13.28215  1.53195  1.31434  14.14633  0.28328     0.01376  6425.85626   6705.68136  1.77608         2392.48497     17.93077  0.00047  60173.05439   3.48444  4.29523  14233827.89242  44.73621  18.97207  60300.56989    51.35973       44.24821   73.24062  103.10572   88.5    0.04984  -21.90172   0.8999 
  -35.23514  0.00256  1.83673     13.68795  1.44104  0.72741  28.38291  0.07193     0.01897  4343.60966   7560.64063  0.66044         5606.66783     16.57122    2e-05  60186.64067   3.19437  0.07272   1899662.60643  45.62075  18.95284  60300.56989    51.45448       44.32508   71.19204   98.19592  100.5    0.04761  -21.78707  0.99825 
  -34.04957  0.01242  1.44326     13.87793  1.72195  0.79319  30.58726  0.07886     0.42209  3762.99862    8241.6587  0.58329         5831.22862     17.12453    7e-05  60187.82624   2.58366  0.38002    584327.71597  46.41952  18.92256  60298.40281    51.42351       44.32581   76.10184   98.19592   93.0    0.04137  -21.73367  0.99578 
  -14.30243  0.02288  0.83305     14.28494    1.774  0.35984  32.11192  0.33505     0.05229  9389.80437   7491.56388  3.79544         2807.54267     20.80379   0.3536  60207.57338   16.8891  0.73488     30778.04593  48.18821  18.93821   60303.7809    51.53277       44.42322   68.66499   99.75427   90.0     0.0378  -22.19906  0.99745 
  -30.35359  0.01013  1.97578     13.80944  1.73251  0.78051  15.38821  0.28845     0.01113  4679.53082   7584.81762  2.96326         3614.53465     16.98558    5e-05  60191.52222   2.01011  0.15585   1510412.30151  45.73695  18.91983  60306.99191    51.53655       44.44766   63.82735   95.74102   92.0    0.03239  -21.78342  0.99673 
  -28.03639  0.01799  0.97889     13.77748  1.58502  1.07458  44.50947  0.12567     0.02503  6114.32994   7655.97611  0.42206         4288.74134     20.29118  0.10862  60193.83942   9.92607  0.80082    392973.72819  46.89305  18.89506  60300.56989    51.48757       44.40564   59.66472   92.53896   88.0    0.03947   -21.9581  0.99541 
  -35.21795   0.0014  1.91461     13.86726  1.85597  0.81826  21.38503  0.20024     0.24289  6235.83968   7324.00624  0.28945         4969.65227     19.62435  0.02339  60186.65786   4.96052  0.02992   1164192.31772  45.90723  18.85864  60309.04971    51.59245       44.52845   52.36704   93.28613   89.0    0.04669  -21.84432  0.99947 
  -25.98145  0.04476  1.66473     14.23602  2.11131  0.49697  74.67704  0.03903     0.17439  4377.77646   7700.59607  0.84847         4402.74924     19.92974  0.04726  60195.89436   8.53732  3.34254    183232.55483  46.88771  18.83477  60309.04971    51.62057        44.5704   54.00776   88.37633   95.0    0.04136  -21.78547  0.96483 
  -25.85683  0.10699   1.7807     13.99652  2.11763  1.22456  36.73018  0.08383     0.08304  3912.50015   7615.12892  1.50284         4163.03469     16.25803    1e-05  60196.01898   3.35397  3.92966    633578.31162  46.29171  18.89679  60300.56989    51.43187       44.32448   51.69089  110.47041  102.5    0.03511  -21.67072   0.9535 
  -37.75948  0.00164  1.49741     13.66656   1.5843  1.22084  19.78915  0.31313     0.02834  6464.01191   7106.30617  0.25987         4897.49943     16.95595    5e-05  60184.11634    4.9324  0.03255   1531848.48683  45.93279  18.84638  60309.04971    51.51908       44.42297    52.4494  104.66407   88.0    0.03965  -21.82429  0.99956 
  -31.01047  0.00386  0.97366     13.75568  1.63538  1.56388  15.56934  0.31534     0.04289    4949.215   7079.13786  0.42178         5275.38815     18.70753  0.00283  60190.86534   2.27494  0.06007    443505.09219  46.85875  18.94165  60306.99191    51.50622       44.38959   73.28287  105.32064   92.0    0.03043  -21.81149  0.99967 
  -37.65615  0.01999  1.66956     13.80097  1.87654  1.22807  35.94669   0.1239     0.02162  5773.73976   7231.05254  0.17821         5954.73435      18.7218  0.00293  60184.21966   7.14826   0.7184   1214595.15874  46.01257  18.93962  60302.36875    51.52851       44.44338   63.82735   90.83123   89.5     0.0418  -21.77585  0.99063 
  -31.01676  0.00516  1.72399     13.89501  1.90441   0.8543  27.23491   0.1363     0.12405  5466.76175   6956.27787  0.39904         3903.85299     16.02896    1e-05  60190.85905   4.85527  0.14061    852360.45184  46.14491  18.91821  60306.99191    51.69038       44.61047   58.91755   90.83123   92.0    0.04383   -21.7991  0.99807 
  -39.81175  0.00535  2.01186     13.69492   1.6721  0.65164  16.91302   0.1335     0.01313  5116.52222   8116.96812  0.42723         5017.12206     20.31905  0.11582  60182.06407   2.64118  0.09051   2561119.44126  45.47648  18.91504   60303.7809    51.44474        44.3431   53.41722  106.28918   87.0    0.04595  -21.88961  0.99786 
  -25.70067  0.06003  1.33336     13.64873  1.42703  1.42205  27.03994  0.09967     0.09785  4263.77025   8205.80766  0.73975         4886.78161     18.18764  0.00086  60196.17514   2.93238  1.62317   1187626.09345   46.0987  18.96965  60298.40281    51.51329       44.41294   64.72389   89.93468   89.5    0.04454  -21.75659  0.97993 
  -34.20396  0.00609  1.16769     13.80195  1.89156  0.81878  40.96362  0.08646      0.1327  5184.32271   7519.95597  0.40332         5465.50247     20.86813  0.41007  60187.67185   6.56764  0.24964    596206.79138  46.63561  18.93505  60300.56989    51.41538       44.30489    66.1159   96.76723   96.0    0.03723  -22.24867  0.99842 
  -35.37992  0.06159  1.74078      13.9766  1.72062   0.4757  18.65677  0.15377     0.01294  4382.54724   9053.37846  0.76366         5345.07737     20.33958  0.12142  60186.49589   2.13755  1.14914    539250.45178  46.29125  18.87002  60306.99191    51.46992        44.3935   64.27875   97.74452   86.5    0.04043  -21.92978  0.98145 
  -30.50917  0.01961  1.26498     13.99006  1.91827  0.91246  36.47761  0.10835     0.05774  4277.28032   7763.05132  0.84049         4421.17014     17.44149  0.00015  60191.36664   3.98097  0.71548    298372.41798  46.87283  18.92688  60300.56989    51.36988       44.25879   66.42548  105.41738   94.5      0.037  -21.67607  0.99486 
  -28.66481   0.0033  1.49269     13.84155  1.79335  0.96866  24.63883  0.11763     0.04359  4075.33291   8879.02085  0.83533         5946.21435     20.00288  0.05592    60193.211   2.44103  0.08123    769706.16188  46.28825  18.92551   60303.7809    51.45421       44.33172   95.74102   98.19592   89.5     0.0436  -21.93333  0.99909 
   -29.7457  0.02656  1.57195     13.80346   1.8654  1.49517  20.09677  0.19559     0.41923  5356.71736   7373.99913  0.42702         5633.66198     16.31413    1e-05  60192.13011   3.43994  0.53378    1058150.2181  46.12219  18.89537  60313.41392    51.44809       44.33961   89.86253   95.74102   89.0    0.04511  -21.85642  0.99378 
  -31.34086  0.01246  1.15144     13.96655  1.60902  0.58753  34.84806  0.21619     0.03115   7697.0155   7280.80554  0.12689         5338.23655     20.27902  0.10562  60190.53495  12.31546  0.43428    231073.17609  46.98918   18.8853  60306.99191    51.51414       44.42265   55.93068   98.79966   86.0    0.04204  -22.00702  0.99661 
  -38.75443  0.08291  2.51036     13.88743  1.80454  0.47353  20.54839  0.11905     0.01134  4748.34356   7924.54005  2.07776         3834.03875     20.14505  0.07759  60183.12138   2.76369  1.70368     1773366.709  45.47694  18.91997  60300.56989    51.46211       44.38547   83.18531   88.65756   98.0     0.0423  -21.81522  0.94618 
  -37.85174  0.10192  1.71326     13.75999  1.91303  1.29494  16.81513  0.20627     0.02566  4949.35522   6760.15933  0.21988         5216.21501     19.75398  0.03153  60184.02407   2.45711  1.71375    1574737.5338  45.88571    18.939  60306.99191    51.65547       44.58917   62.01311   90.83123   96.0    0.03495  -21.77137  0.97738 
  -35.34199  0.36029  1.87757      13.7337  1.59309  1.50914  25.62672  0.10254     0.01086  4542.71223   7524.37912  0.65081         4936.31492      19.3382   0.0121  60186.53382   3.15465  9.23308   1777666.46737  45.67404  18.90819  60310.20291    51.51582       44.42213   71.64345   97.74452   95.5    0.04109  -21.73421   0.8355 
  -24.66789  0.02269  0.78561     13.91459  1.70823   1.2166  42.53748  0.22008     0.17098  8341.07353   7153.79659  0.14064          5076.6559     16.97774    5e-05  60197.20792  17.65399  0.96528    145079.99593  47.54937  18.94489   60303.7809    51.60503       44.52512   56.46266   95.74102   86.0    0.04559  -21.88872  0.99691 
