 texplosion  fnickel    Pspin  log(Bfield)      Mns  thetaPB   mejecta    kappa  kappagamma     vejecta  temperature    alpha  cutoff_wavelength  log(nhhost)      A_V         MJD0  kenergy  mnickel             TSD   log(L0)  Peak_mag     Peak_MJD  log(E_rad)  log(Peak_lum)  Rise_Time    E_fold  tau_1  delta_m15     r_peak     frac 
  -16.16422   0.2262  1.54449       12.992  1.77355  1.43574   6.04816  0.33486     0.01902  8093.93163   4896.61428  0.02324         3638.93049     17.52988  0.00019  59953.13986  2.36357  1.36811  40759955.27941  44.52989  18.03819   60057.5719    51.54091       44.52709   66.83316   79.1009   84.5    0.07336  -22.07129  0.97829 
  -12.01522  0.00659  1.62809     13.42155  1.54607   0.3973  10.98774  0.13347     0.01083  7290.31037   4864.58266  1.41335         2965.31055     18.40137   0.0014  59957.28885  3.48359  0.07243   5461365.07524  45.29742  18.07557  60049.98359    51.47778       44.45096   66.78339  79.15068   88.5    0.07711  -22.02146  0.99847 
  -13.32232  0.02134  1.26037     13.00536  1.50659  0.84508   6.59707  0.33561     0.01374  8476.52759   8724.75866  0.12348         2824.43347     20.12043  0.07331  59955.98175  2.82757  0.14079  21681541.23565  44.90975  18.04869  60055.18355    51.55154       44.56447   63.58428  72.45595   66.5    0.08056  -22.14413  0.99813 
  -14.36023  0.21106  1.66268     13.10437  1.59654  1.21165   8.04696  0.23818      0.0139  7322.42356   9658.24306  0.71768          2908.1246     18.99935  0.00555  59954.94385  2.57377  1.69841  25343262.94186  44.62655  18.04104   60057.5719    51.48943       44.47139   74.03108   76.8499   64.5    0.07463  -22.03496  0.96695 
  -13.47971  0.01421  1.85718     13.20044  1.50968  1.16235   7.25413  0.32781     0.01052  5975.97267   7812.14048  4.29664         3523.52156     16.38999    1e-05  59955.82436  1.54536  0.10305  19209662.41632   44.6265  18.04057  60056.29316    51.54463       44.53363   66.83316  76.62744   78.0    0.07936  -21.99093  0.99731 
  -14.62547    0.001  1.44241     13.11291  1.38624  0.70434   7.67558  0.27466     0.01159  6590.16775   5247.50828  2.29795         3549.25555     20.07344  0.06579   59954.6786  1.98853  0.00768    15922496.719   44.8905  18.04744  60055.31023     51.5274       44.50639   69.25685  79.15068   86.0    0.07369  -22.09821  0.99985 
  -17.34615  0.00391  1.57744      13.1641  1.60286  1.24595   9.32538   0.2935      0.0102  6991.32227   5225.87207  0.16087         5619.47255     18.03873  0.00061  59951.95792  2.71902  0.03649   17394710.5724  44.83742  18.06005  60056.29316    51.44196       44.42774   74.13976  76.74122   80.5    0.06663  -22.09356  0.99938 
  -15.38781  0.01331  1.75474     13.24447  1.84565  1.08125   8.53355   0.2482     0.01049  7040.48535   4714.93271  0.17358         5905.40112     17.21562    9e-05  59953.91626  2.52326  0.11355  17117866.10368  44.81312  18.05076   60057.5719    51.51313       44.50504    71.7303  76.67722   80.5     0.0736  -22.08311  0.99802 
  -12.87265  0.05771  1.50981     13.09436  1.52291  1.20165   6.45581  0.28689     0.01539  7506.63637   8692.96652  0.73312         2525.22652     20.25014  0.09883  59956.43142  2.17004  0.37255  20874622.17433  44.77405  18.03172  60056.29316    51.45923       44.42369   74.13976  81.68814   68.5    0.07906  -22.11589  0.99363 
  -12.48749  0.03864  1.92094     13.37217  1.57928  0.77797   7.88888  0.27868     0.01257  6437.16755   8085.45425  3.43417         3134.61399     18.89359  0.00435  59956.81658  1.94999  0.30485   9749216.00593  44.91131  18.03324   60057.5719    51.58833       44.62564    62.7876  68.30571   76.0    0.07833  -21.99731  0.99222 
  -13.23556  0.00438  1.95886     13.24965  2.00775  1.22065   7.82306  0.31138     0.01152  6935.88699   5098.27447  4.35952         2721.74485     17.50785  0.00018  59956.06851  2.24496  0.03427  22658139.57883  44.63232  18.02676   60057.5719    51.52647        44.5173   66.85348  76.60713   84.5    0.07195  -22.01429  0.99932 
  -17.25914  0.00234  1.59709     13.11793  1.84378   1.1392   8.18504  0.27358     0.01116  7636.02102    4802.0239  0.21229         2600.53017      16.0226    1e-05  59952.04494  2.84697  0.01919  25370139.15147  44.72357  18.04931  60060.62167    51.56152       44.57122   66.83316  74.15399   81.5    0.07301   -22.0562  0.99971 
  -14.74855  0.01683  1.74732     13.37228  1.49131  0.63389   9.15125   0.2721     0.01854  7895.56086   6086.22102  3.19318         2669.98596     19.86463  0.04068  59954.55552  3.40309  0.15397   7613071.99621  45.07611  18.03335  60056.29316    51.62053       44.64323    62.7876  70.77917   80.0    0.07568  -22.11064  0.99641 
  -14.07721  0.08056  1.71075     13.12991   1.6887  0.99608   7.75474  0.29875     0.01427  7497.79928   5468.46439  2.35054         3297.06625     19.59015  0.02162  59955.22686  2.60053  0.62474  25230649.44036  44.62809  18.03513   60057.5719    51.54275       44.53506   66.83316  76.62744   82.0    0.07579  -22.06618  0.98732 
  -12.77441  0.00279  1.34702     12.93809  1.74515  1.52139   6.07089  0.32658     0.01385  7875.91722   5163.55464  3.15262         2008.65221     20.34789  0.12377  59956.52966  2.24637  0.01692  39102719.76583  44.65973  18.01591  60060.62167     51.5177       44.50104   69.96308  75.97099   86.5    0.07282  -22.17492  0.99979 
  -16.47806   0.1758  1.71337      13.1255   1.8157   1.2004   7.93712  0.22668     0.01345  7438.23017   4943.76397  0.39154         2363.69922     18.54272  0.00194  59952.82602  2.61957  1.39535  27769212.98477  44.61662  18.06487  60051.47235    51.44096       44.41306   70.88784  79.99314   85.0    0.07159  -22.02321  0.97524 
  -13.45346  0.00282   1.3385     12.83037   1.5012  1.19469    8.0806  0.22119      0.0121   7451.2898   5326.43485  1.84889         3302.68559     18.12632  0.00074  59955.85062  2.67629  0.02278  54545933.91223  44.45528  18.06578   60053.2066    51.53987       44.54444    62.7876  75.72609   88.5    0.07442  -22.03084  0.99961 
  -19.26371  0.00263  1.93743     13.66153  1.86718  0.40111  10.53678   0.3001     0.01246   7214.5526   5120.85088  4.93731          2456.3401     18.53449   0.0019  59950.04036  3.27155   0.0277   3093048.07245  45.47519  18.07099  60052.24728    51.49763        44.4725   66.85348  81.55405   84.0    0.06428  -22.04452  0.99943 
  -14.11073  0.04631  1.62265     13.10938   1.6683  1.06756   7.77717  0.31645     0.01536  7818.88682   4289.46546  4.69104         2354.10916     19.65512  0.02511  59955.19334  2.83621  0.36016  24647421.58116   44.6789  18.06163    60051.177    51.45945       44.42948   69.96308  80.91791   83.0    0.07366  -22.08775  0.99342 
  -18.73763  0.00275  1.78644      13.2215  1.70856  1.07692   8.97827  0.25593     0.01535  7443.83613   4921.43233  0.39482         3447.77652     18.20734   0.0009  59950.56644  2.96765  0.02469  18256570.35273  44.73608  18.05525  60055.18355    51.51571       44.48774   68.43761  79.96992   82.5    0.07015    -22.069   0.9995 
  -15.98719  0.19981  1.39354     13.18765    1.511  0.70974   9.36775  0.33776     0.01275  8438.72067   4771.41497  0.73814         2147.12129     20.17654  0.08342  59953.31689  3.97938  1.87175  11482191.13809  45.09985  18.04624  60056.29316    51.56305       44.58107   66.05774  72.45595   79.0    0.07209  -22.19325  0.97251 
  -14.59132  0.38514  1.40473      13.2333  1.51116  0.56276   7.90902   0.1913     0.01142  7384.67794   4660.02219  0.03542         4104.45225     20.17935  0.08396  59954.71275  2.57284  3.04605   9456057.80343  45.17726  18.03827   60057.5719    51.54819       44.53839   66.83316  76.62744   84.0    0.07498  -22.09164  0.95371 
  -16.01007  0.01611  1.70471      13.1255  1.71828  1.17582   9.33256  0.22036     0.01023  6881.66093   5106.47847  3.11619         2534.37272     16.09862    1e-05    59953.294  2.63642  0.15031  26014094.85683  44.62543  18.04337  60054.52212    51.51753        44.4977   71.55763   76.8499   87.0    0.07143  -22.00408  0.99711 
  -13.63274  0.01653  1.48257     12.97498  1.74744  1.38823   7.61342  0.29158      0.0105  7333.75912   4992.20551  0.81709          3668.7936      19.1368  0.00761  59955.67133  2.44264  0.12582  40020372.56539  44.56693  18.02543  60060.62167    51.53656       44.53753   70.91107    75.023   86.0    0.07381  -22.06035  0.99809 
  -15.88199  0.00666  1.79373     13.25859  1.83769  0.92052   8.72491  0.18954      0.0113  6909.84412   4880.47245  1.41103         2287.13026     19.45543  0.01585  59953.42208  2.48499  0.05808  16688585.18388  44.80318  18.04242  60055.18355    51.54887       44.54783   63.58428  74.92941   86.5    0.07187  -22.00468   0.9989 
  -14.84045  0.02748  1.59468     13.18252  1.52067  0.74474   5.65382  0.24297     0.02344   7560.2504   4534.13539  0.09823         4312.63992     17.86686  0.00041  59954.46362  1.92771  0.15538  15493919.93543  44.85537    18.043  60056.29316    51.43171       44.38971   77.94325  82.83157   87.5    0.07179  -22.02396  0.99684 
  -16.20296  0.00185  2.04001      13.3666  2.06649  0.93359   8.85972  0.27376     0.01238   7109.8332   4839.52917   3.7552         2506.52521     16.91107    5e-05  59953.10111  2.67157  0.01641   14760888.5617   44.7957  18.02759  60056.29316    51.45985       44.45078   74.20376  76.67722   84.0    0.06832  -22.03228  0.99967 
  -13.48136   0.0088   1.7049     13.33905  1.55984  0.64579   9.99294  0.19111     0.01161  7161.75048   4827.48158  3.49251         2202.01463     16.86934    4e-05  59955.82272  3.05744  0.08798   8834732.34903  45.05234  18.05416  60054.52212    51.41579       44.37547   74.80604  81.02187   83.5    0.07374  -22.01466  0.99814 
  -15.44564  0.00159  1.86358     13.50438  1.77276  0.53829  11.21421  0.18936     0.01026   7362.6842   7959.47651  1.11988         2498.91816     16.80128    4e-05  59953.85844  3.62634  0.01789   5602662.92213  45.22841  18.08648  60051.31904    51.46277       44.45981   68.43761    75.023   74.0    0.07445  -22.01905  0.99963 
   -14.3529  0.00201  1.79105     13.33988  1.76997  0.79541   7.56653  0.29535     0.01159  7211.72114   7338.49597  2.51019         2292.23042     16.47885    2e-05  59954.95118  2.34748  0.01519  11021359.17304  44.96836  18.03992   60057.5719     51.5103       44.53887   66.38425  69.25685   76.0    0.07355  -21.99104  0.99971 
   -15.6489  0.18312  1.42849      12.9994  1.54141  0.96396   7.02942  0.26052     0.01374   7569.6081   4880.67483  0.44834          3497.8097     17.13603    8e-05  59953.65517  2.40267   1.2872  29288187.14325  44.68032  18.03817  60055.31023    51.48425       44.46527   69.96308  78.44445   85.5    0.07667   -22.0405  0.97857 
  -16.06796  0.10561  1.75267     13.15257  1.87669  1.14177    7.8516  0.26184     0.01399  7424.86875   4880.90974  0.72705         2754.64791     17.38943  0.00014  59953.23612  2.58204  0.82917  26513127.89596  44.63137  18.04013  60055.18355    51.49359       44.47557   69.25685  79.15068   86.0     0.0722  -22.03677  0.98514 
  -12.95688  0.00826  1.72767     13.15256   1.6152  1.33405   7.11505  0.30883      0.0144  7271.07096   8534.74063  2.21733         2649.73302      18.2834  0.00107  59956.34719  2.24389   0.0588  22173589.98785  44.65632  18.05725  60054.52212    51.55353       44.56631   65.26106  73.25263   71.0    0.07715   -22.0281  0.99879 
  -15.26465  0.43398  2.10995     13.44645  1.68203  1.00437  11.32968  0.15921     0.01833  7458.47606   4651.75721  0.02522         3656.63195     17.72326  0.00029  59954.03942  3.75963  4.91683   8897909.83762  44.89685  18.04032  60054.52212      51.505       44.49606   66.78339  76.67722   81.0    0.07228  -22.04959  0.88311 
  -14.98456  0.09463   1.8715     13.34719  2.09943  0.66716   7.16718  0.28593     0.01308  7171.97474   4873.72422  1.59631          3213.3372     18.40688  0.00142  59954.31952  2.19914  0.67822  13801311.66215  44.90664  18.05543  60054.52212    51.51236        44.4962   66.78339  76.67722   85.5    0.07262  -22.03736  0.98779 
  -13.75776  0.00464  1.59257     13.08517  2.09802  1.11734   7.15764  0.23232     0.01139  7734.52568   4701.93166  0.05396          4547.0303     17.89268  0.00043  59955.54631  2.55425  0.03319  33380344.82732  44.66297  18.05549  60056.29316    51.50661       44.50703   68.03847    75.023   86.0     0.0739  -22.05597  0.99955 
  -15.76331  0.02482  2.21479     13.42512   2.0177  1.12352  10.56409  0.22519     0.01164  6714.66518    5149.4546  2.10945         2911.21826     16.59995    2e-05  59953.54076  2.84124  0.26224  12974723.98751  44.76994  18.05094  60055.18355    51.54225       44.55151   63.58428  74.92941   83.0    0.06889  -22.02223   0.9939 
  -14.94461  0.00201  1.47749     12.94598   1.5454  1.52519   6.75338  0.27282     0.01616  7646.82093   4963.24392  4.74767         2013.92627     18.02666  0.00059  59954.35947  2.35565   0.0136  40174205.06853  44.51489  18.02668  60055.31023    51.48387       44.47592   71.61163   76.7959   87.0    0.07048  -22.02855  0.99976 
   -16.0444  0.00604  1.60769     13.24747  1.70707  0.80665   8.74611  0.29334     0.01022  7273.30456   9585.05284  0.76305         2683.06191     17.75039  0.00031  59953.25968  2.75998  0.05286  13107696.08654  44.97117  18.08614  60051.47235    51.45884       44.44007   69.25685  79.15068   64.0    0.07183  -22.03435  0.99912 
  -16.10519  0.00269  1.51671     13.15485  1.79213  0.84233   8.82761  0.27976     0.01045  7986.12643   9807.84892  0.80136         2366.94632      19.6606  0.02543  59953.19888  3.35848  0.02371  18762757.96535  44.88711  18.06307   60057.5719    51.56663       44.57863   66.78339   71.7303   60.5    0.07446  -22.08095  0.99965 
  -13.59751   0.0019  1.49046     12.95993   2.1355  1.30575   7.26421  0.21404     0.01093  7641.69461    5271.1167  1.40183         2496.60579     19.82917  0.03749  59955.70656  2.53043  0.01381  52977597.63784  44.52761  18.05158  60055.31023    51.51179       44.52822   66.83316  71.68053   91.0    0.07189  -22.05076  0.99982 
  -14.02986  0.17417  1.69043     13.07056  1.80178    1.039   9.40944  0.17941     0.01077  7055.93079   4972.38434  2.17462         2997.60307     19.09051  0.00684  59955.27422  2.79447  1.63889  34546400.93815  44.53015  18.06048  60056.29316    51.50128       44.50754   69.32694  71.66021   91.5    0.07121  -22.00572  0.96889 
  -16.35367  0.01508  1.57467     13.01291  1.59486  1.51253   6.08509  0.33605     0.01656  7189.47157   4905.60597  1.22033         3035.66143     16.44974    2e-05   59952.9504  1.87624  0.09179  34601654.08238  44.53809  18.05972  60056.29316    51.50283       44.48631   69.96308  78.44445   85.0    0.06995  -22.02588  0.99828 
  -13.58679  0.01256  1.48845     13.06146  1.51743  1.01756   8.67726  0.27928     0.01131    7555.192   5029.19255  2.32809         2583.66326     17.92517  0.00047  59955.71729  2.95462  0.10896  23521706.38696  44.73302  18.03922  60056.29316    51.50186       44.49583   69.25685  76.67722   81.5    0.07283  -22.04982  0.99807 
  -15.06504  0.01332  1.34981      12.9105  1.56364  1.36455   6.85497  0.29344     0.01208  7470.63843   5211.06992  2.05631         2012.98588     19.01404  0.00574  59954.23903  2.28217   0.0913  39947813.58905  44.60094  18.05579   60053.2066    51.55902       44.57323   63.58428  72.45595   85.5    0.07119  -22.02669  0.99866 
  -16.72976  0.00582   1.6834     13.14949  2.05679  1.07606   6.68767  0.31192     0.01305  7501.03766   4209.40447  0.14564         4190.84089     16.96341    5e-05  59952.57432  2.24463  0.03891  27190004.03961  44.69525  18.06581  60051.47235    51.42535       44.39478    71.7303  81.62414   83.5    0.07346  -22.04224  0.99941 
   -14.9213  0.02724  1.70469     13.08973  1.84553  1.40653   7.50316  0.31974     0.01195  7189.50497   5515.64999  3.34844         2838.55929     19.52884  0.01877  59954.38278   2.3135  0.20442  32943205.32725  44.55391  18.04481   60057.5719    51.49765       44.49908   70.88784  72.57277   86.0    0.07093  -22.04731  0.99637 
  -14.77527  0.00978  1.64602     13.12909  1.67484  1.03141   9.70429  0.22126     0.01281  8038.63025   5592.30314  1.46176         2197.86821     17.11214    7e-05   59954.5288  3.74072  0.09489  23253568.43024  44.69346  18.05739  60054.52212    51.48905       44.47315   69.25685  79.15068   83.5    0.07323   -22.0566  0.99822 
   -15.1448  0.05167  1.42031     13.09342  1.66743  0.78342   6.84129  0.31805     0.01352  7701.37527   5025.75923    0.641         2737.31254     16.55846    2e-05  59954.15927  2.42048  0.35346  20313374.41917  44.87835  18.08254   60053.2066    51.54254       44.54486   61.83647  74.20376   85.0    0.07174  -22.06879  0.99477 
  -13.21075  0.40533  1.87146     13.21722  1.86795  0.92331   7.19592  0.33434     0.01038  6418.82202   5181.07468   4.7388         3255.71962     17.90281  0.00044  59956.09332  1.76858  2.91669  22340979.48202  44.64675  18.04683   60057.5719    51.53658       44.55931   66.75024  69.28999   86.5     0.0714   -22.0142  0.94151 
  -15.59372  0.00379   1.5406     13.10268  1.79162  1.16868   8.06309  0.31246      0.0103  7494.76353   4372.72094  0.68456         2274.98688     17.41877  0.00015  59953.71035  2.70174  0.03053  24608063.20833  44.75563  18.02016   60057.5719    51.57964       44.58253   66.83316  74.15399   81.5    0.07112  -22.05098  0.99955 
  -14.80605  0.01555  1.43919     13.05215   1.7652  0.77036   8.15117  0.28625     0.01158   7693.7317   4506.27487  3.18696          2846.1938     19.33693  0.01207  59954.49802   2.8782  0.12673  26701611.45098  44.77286  18.03083   60057.5719    51.52087       44.48938   69.25685  81.62414   88.0     0.0741  -22.05531  0.99806 
  -15.94034  0.00473  1.74193     13.24051    1.657   0.8197   8.81202  0.24415     0.01211  6959.23919   5201.78125  2.04101         2933.33054     17.06398    6e-05  59953.36373  2.54581  0.04165  15423452.68909  44.81792  18.05181  60056.29316     51.5202       44.51983   69.25685  74.20376   84.5    0.07069  -22.01175  0.99913 
  -16.94207  0.23313  1.51312     13.35472  1.51666  0.50757   9.96198  0.30061     0.01041  7598.13803   4916.87543  0.41963         3517.64008     17.10647    7e-05    59952.362  3.43074  2.32241   6295267.82669  45.29097  18.05099  60054.52212    51.48958       44.51697   66.38425  69.25685   79.5    0.07045  -22.07142  0.96059 
  -14.46729  0.00148  1.54586     13.11308  1.69362  0.94135   7.29137  0.32837     0.01107  7071.98021   4740.57624  1.87599         2916.49073     17.59037  0.00022  59954.83679   2.1753  0.01083  22326223.41702  44.77051  18.03607  60052.24728    51.44239       44.41067   72.45354  80.90091   86.0    0.06873  -22.02951  0.99982 
  -15.63935  0.00477  2.06931     13.43454  1.88348  0.76018   9.41378  0.26916     0.01213  6626.10404   4994.14956  4.31223         2993.17417     18.00627  0.00056  59953.66472  2.46551   0.0449  10123911.15382  44.90681  18.06891  60055.31023    51.51752       44.51354   70.91107    75.023   84.0     0.0703  -22.03574  0.99895 
  -15.33006  0.05274  1.93782     13.36844  1.99183   0.7533   8.29854  0.25455     0.01317  7367.41624   4756.85876   1.8947         2688.14156     18.16947  0.00082  59953.97401  2.68695  0.43768  12729628.70619  44.88865  18.04001  60056.29316    51.43789       44.40691   74.20376  79.15068   83.0    0.07503  -22.03612  0.99141 
  -17.48147  0.00914  1.52954     13.08171  1.81399  1.45172   7.66336  0.30944     0.01143  7431.15055    4741.5286  0.44609         3342.36015     20.35665  0.12629   59951.8226   2.5244  0.07002  27048676.17074  44.72621  18.05201  60056.29316    51.54611       44.54556   63.58428  74.92941   82.5    0.06861  -22.15839  0.99901 
