# STATUS =
# OBJECT = 1999as
# TELESCOPE = ctio
# INSTRUMENT = Unknown
# DATE-OBS = 1999-03-15 00:00:00.000
# MJD = 51252.0
# EXPTIME =
# AIRMASS =
# SLIT =
# DISPERSER =
# SOURCE =
# FILTER =
# RESOLUTION =
# FLUX_STANDARD =
# EXTINCTION_CORRECTED = True
# PHOTOMETRY_CALIBRATED =
# TELLURIC_CORRECTED = True
# FLUX_UNITS =
# WAVE_UNITS =
# QUALITY =
# MIN_WAVE = 2981.86
# MAX_WAVE = 9300.96
# COMMENT =
 Wavelength         Flux 
    2983.61  1.02345e-16 
    2985.37   1.0234e-16 
    2987.12  9.15656e-17 
    2988.88  8.77537e-17 
    2990.63  9.02105e-17 
    2992.39  7.30643e-17 
    2994.14  7.58672e-17 
     2995.9  5.83721e-17 
    2997.66  6.46399e-17 
    2999.41  5.85661e-17 
    3001.17  6.04605e-17 
    3002.92  6.92808e-17 
    3004.68  6.86954e-17 
    3006.43  8.04223e-17 
    3008.19  6.63641e-17 
    3009.95  6.52032e-17 
     3011.7  4.27346e-17 
    3013.46  3.18905e-17 
    3015.21   2.7343e-17 
    3016.97   3.9318e-17 
    3018.72  5.88974e-17 
    3020.48  7.33391e-17 
    3022.23  8.60957e-17 
    3023.99  9.24978e-17 
    3025.75  8.07775e-17 
     3027.5  9.01951e-17 
    3029.26  6.70734e-17 
    3031.01  7.69279e-17 
    3032.77  7.71549e-17 
    3034.52  8.33505e-17 
    3036.28  7.92985e-17 
    3038.03  7.33987e-17 
    3039.79  8.89744e-17 
    3041.55  9.37948e-17 
     3043.3  8.71638e-17 
    3045.06  7.07642e-17 
    3046.81  6.45281e-17 
    3048.57  7.10266e-17 
    3050.32  8.21808e-17 
    3052.08  8.90615e-17 
    3053.83  7.89928e-17 
    3055.59  7.72609e-17 
    3057.35  6.51711e-17 
     3059.1  7.05445e-17 
    3060.86  6.87598e-17 
    3062.61  6.52686e-17 
    3064.37  7.47223e-17 
    3066.12   7.9613e-17 
    3067.88  9.16138e-17 
    3069.63  8.96714e-17 
    3071.39   1.0131e-16 
    3073.15  9.27924e-17 
     3074.9  8.70963e-17 
    3076.66  7.65905e-17 
    3078.41  7.69792e-17 
    3080.17   7.8366e-17 
    3081.92  8.51933e-17 
    3083.68  9.54886e-17 
    3085.43  9.36109e-17 
    3087.19  8.52563e-17 
    3088.95  8.62695e-17 
     3090.7  9.26699e-17 
    3092.46  9.43743e-17 
    3094.21  7.86683e-17 
    3095.97  6.74037e-17 
    3097.72  6.89209e-17 
    3099.48  7.85818e-17 
    3101.23  8.05849e-17 
    3102.99  7.87925e-17 
    3104.75  8.22257e-17 
     3106.5  9.05226e-17 
    3108.26  9.36204e-17 
    3110.01  9.77691e-17 
    3111.77  9.86909e-17 
    3113.52  9.07385e-17 
    3115.28  8.46702e-17 
    3117.03  7.60376e-17 
    3118.79  7.29274e-17 
    3120.55  6.70679e-17 
     3122.3  6.55607e-17 
    3124.06  7.93944e-17 
    3125.81  9.26739e-17 
    3127.57  9.73648e-17 
    3129.32  9.58805e-17 
    3131.08  7.57188e-17 
    3132.83  6.74503e-17 
    3134.59  6.40629e-17 
    3136.35  8.99554e-17 
     3138.1  1.06412e-16 
    3139.86  1.14864e-16 
    3141.61  1.05027e-16 
    3143.37  1.06267e-16 
    3145.12  1.15589e-16 
    3146.88  1.13578e-16 
    3148.64  1.04007e-16 
    3150.39  8.98222e-17 
    3152.15  8.91525e-17 
     3153.9  1.04131e-16 
    3155.66  1.02297e-16 
    3157.41  1.05498e-16 
    3159.17  9.87853e-17 
    3160.92  1.01178e-16 
    3162.68  1.08956e-16 
    3164.44  1.05709e-16 
    3166.19  1.09228e-16 
    3167.95  1.18007e-16 
     3169.7  1.31318e-16 
    3171.46  1.33694e-16 
    3173.21  1.25396e-16 
    3174.97  1.15491e-16 
    3176.72  1.10942e-16 
    3178.48   1.1057e-16 
    3180.24  1.16509e-16 
    3181.99  1.22135e-16 
    3183.75  1.19741e-16 
     3185.5   1.1696e-16 
    3187.26  1.15384e-16 
    3189.01  1.19306e-16 
    3190.77  1.17608e-16 
    3192.52  1.16357e-16 
    3194.28   1.1868e-16 
    3196.04  1.14224e-16 
    3197.79  1.21467e-16 
    3199.55  1.26028e-16 
     3201.3  1.32486e-16 
    3203.06  1.28657e-16 
    3204.81  1.16538e-16 
    3206.57   1.1465e-16 
    3208.32  1.12969e-16 
    3210.08  1.12671e-16 
    3211.84  1.08527e-16 
    3213.59  1.13404e-16 
    3215.35  1.13556e-16 
     3217.1  1.06701e-16 
    3218.86  9.57571e-17 
    3220.61  7.98507e-17 
    3222.37  6.21281e-17 
    3224.12  4.29399e-17 
    3225.88   3.2711e-17 
    3227.64  5.49136e-17 
    3229.39  6.99996e-17 
    3231.15  8.63649e-17 
     3232.9  8.90408e-17 
    3234.66  9.76878e-17 
    3236.41  1.08159e-16 
    3238.17  1.04448e-16 
    3239.92   9.7834e-17 
    3241.68  9.23932e-17 
    3243.44  8.97836e-17 
    3245.19   8.6472e-17 
    3246.95  8.06054e-17 
     3248.7  8.43027e-17 
    3250.46  9.32145e-17 
    3252.21  9.25558e-17 
    3253.97  9.14937e-17 
    3255.72  8.39881e-17 
    3257.48  8.98026e-17 
    3259.24  9.21896e-17 
    3260.99  9.77883e-17 
    3262.75  9.79133e-17 
     3264.5  1.00448e-16 
    3266.26  1.01729e-16 
    3268.01  1.00801e-16 
    3269.77  9.28402e-17 
    3271.52  9.65705e-17 
    3273.28  1.03271e-16 
    3275.04  1.09817e-16 
    3276.79  1.08007e-16 
    3278.55  1.05477e-16 
     3280.3  1.11479e-16 
    3282.06  1.16973e-16 
    3283.81  1.27632e-16 
    3285.57  1.25443e-16 
    3287.32  1.22403e-16 
    3289.08  1.20057e-16 
    3290.84  1.24992e-16 
    3292.59  1.30736e-16 
    3294.35  1.32379e-16 
     3296.1   1.2994e-16 
    3297.86   1.2229e-16 
    3299.61  1.15848e-16 
    3301.37  1.15711e-16 
    3303.13  1.19224e-16 
    3304.88  1.21671e-16 
    3306.64  1.19511e-16 
    3308.39  1.18133e-16 
    3310.15  1.21187e-16 
     3311.9  1.22428e-16 
    3313.66  1.27038e-16 
    3315.41  1.31429e-16 
    3317.17  1.31356e-16 
    3318.93  1.32896e-16 
    3320.68  1.32686e-16 
    3322.44  1.38355e-16 
    3324.19  1.43966e-16 
    3325.95  1.42932e-16 
     3327.7   1.3862e-16 
    3329.46   1.3416e-16 
    3331.21  1.28714e-16 
    3332.97  1.21643e-16 
    3334.73  1.17463e-16 
    3336.48  1.19817e-16 
    3338.24  1.27767e-16 
    3339.99  1.35529e-16 
    3341.75  1.36244e-16 
     3343.5  1.38258e-16 
    3345.26  1.31606e-16 
    3347.01  1.32844e-16 
    3348.77  1.36127e-16 
    3350.53   1.4496e-16 
    3352.28  1.49259e-16 
    3354.04  1.50531e-16 
    3355.79  1.48037e-16 
    3357.55  1.43497e-16 
     3359.3  1.46103e-16 
    3361.06  1.49602e-16 
    3362.81  1.51231e-16 
    3364.57  1.49124e-16 
    3366.33  1.45073e-16 
    3368.08  1.51636e-16 
    3369.84   1.4572e-16 
    3371.59  1.44235e-16 
    3373.35  1.30058e-16 
     3375.1  1.30208e-16 
    3376.86  1.25985e-16 
    3378.61   1.2766e-16 
    3380.37  1.28811e-16 
    3382.13  1.32336e-16 
    3383.88  1.41205e-16 
    3385.64  1.43322e-16 
    3387.39   1.4442e-16 
    3389.15  1.39377e-16 
     3390.9  1.42782e-16 
    3392.66  1.51606e-16 
    3394.41  1.57219e-16 
    3396.17   1.5517e-16 
    3397.93  1.51017e-16 
    3399.68  1.56448e-16 
    3401.44  1.60093e-16 
    3403.19  1.58553e-16 
    3404.95   1.5639e-16 
     3406.7  1.55069e-16 
    3408.46  1.59272e-16 
    3410.21  1.54668e-16 
    3411.97  1.55484e-16 
    3413.73  1.46758e-16 
    3415.48  1.51763e-16 
    3417.24  1.54206e-16 
    3418.99  1.56021e-16 
    3420.75  1.54027e-16 
     3422.5  1.55756e-16 
    3424.26   1.6231e-16 
    3426.01  1.67731e-16 
    3427.77  1.70214e-16 
    3429.53  1.62347e-16 
    3431.28  1.49375e-16 
    3433.04  1.38864e-16 
    3434.79  1.46141e-16 
    3436.55  1.51639e-16 
     3438.3  1.51918e-16 
    3440.06  1.47911e-16 
    3441.82  1.48867e-16 
    3443.57  1.54366e-16 
    3445.33  1.54432e-16 
    3447.08  1.57066e-16 
    3448.84  1.55482e-16 
    3450.59  1.56626e-16 
    3452.35  1.55657e-16 
     3454.1  1.55658e-16 
    3455.86  1.58238e-16 
    3457.62  1.59255e-16 
    3459.37  1.62022e-16 
    3461.13  1.57334e-16 
    3462.88  1.58284e-16 
    3464.64  1.66538e-16 
    3466.39  1.75819e-16 
    3468.15  1.80966e-16 
     3469.9  1.73365e-16 
    3471.66  1.66818e-16 
    3473.42  1.60064e-16 
    3475.17    1.507e-16 
    3476.93  1.44267e-16 
    3478.68  1.47619e-16 
    3480.44  1.51788e-16 
    3482.19  1.61756e-16 
    3483.95  1.65998e-16 
     3485.7  1.71133e-16 
    3487.46  1.66903e-16 
    3489.22  1.57928e-16 
    3490.97  1.50549e-16 
    3492.73  1.47429e-16 
    3494.48  1.55438e-16 
    3496.24  1.64152e-16 
    3497.99  1.71117e-16 
    3499.75  1.73654e-16 
     3501.5   1.7441e-16 
    3503.26  1.78183e-16 
    3505.02  1.84701e-16 
    3506.77  1.92835e-16 
    3508.53  1.90514e-16 
    3510.28  1.79719e-16 
    3512.04  1.76657e-16 
    3513.79  1.79551e-16 
    3515.55  1.82575e-16 
     3517.3  1.82111e-16 
    3519.06  1.81566e-16 
    3520.82  1.84714e-16 
    3522.57   1.9251e-16 
    3524.33  2.05001e-16 
    3526.08  2.01918e-16 
    3527.84  1.93934e-16 
    3529.59  1.86209e-16 
    3531.35  1.89528e-16 
     3533.1  1.90189e-16 
    3534.86    1.936e-16 
    3536.62  1.87593e-16 
    3538.37  1.87577e-16 
    3540.13  1.89699e-16 
    3541.88  1.98021e-16 
    3543.64  1.96642e-16 
    3545.39  1.85989e-16 
    3547.15  1.80059e-16 
     3548.9  1.82737e-16 
    3550.66  1.91874e-16 
    3552.42  1.98309e-16 
    3554.17  1.96493e-16 
    3555.93  1.93969e-16 
    3557.68  2.02856e-16 
    3559.44  2.15334e-16 
    3561.19   2.1775e-16 
    3562.95  2.09538e-16 
     3564.7  2.06087e-16 
    3566.46   2.0197e-16 
    3568.22  2.02813e-16 
    3569.97  1.97626e-16 
    3571.73  2.07281e-16 
    3573.48  2.16853e-16 
    3575.24  2.15381e-16 
    3576.99  2.02679e-16 
    3578.75  1.89309e-16 
    3580.51  1.88987e-16 
    3582.26  1.90966e-16 
    3584.02  1.93662e-16 
    3585.77  2.02041e-16 
    3587.53  2.11402e-16 
    3589.28  2.11092e-16 
    3591.04  2.00196e-16 
    3592.79   1.9407e-16 
    3594.55  1.89983e-16 
    3596.31  1.94786e-16 
    3598.06  1.94299e-16 
    3599.82  1.95078e-16 
    3601.57  1.87959e-16 
    3603.33  1.76343e-16 
    3605.08  1.69959e-16 
    3606.84  1.68211e-16 
    3608.59  1.72627e-16 
    3610.35  1.78773e-16 
    3612.11   1.8229e-16 
    3613.86  1.81614e-16 
    3615.62  1.74017e-16 
    3617.37  1.72444e-16 
    3619.13  1.73971e-16 
    3620.88  1.76824e-16 
    3622.64  1.75208e-16 
    3624.39  1.73803e-16 
    3626.15  1.75821e-16 
    3627.91  1.79342e-16 
    3629.66  1.88645e-16 
    3631.42  1.91192e-16 
    3633.17  1.89681e-16 
    3634.93  1.85622e-16 
    3636.68  1.92127e-16 
    3638.44  1.97221e-16 
    3640.19  1.96577e-16 
    3641.95  1.99009e-16 
    3643.71  2.09922e-16 
    3645.46  2.23793e-16 
    3647.22   2.2972e-16 
    3648.97  2.29949e-16 
    3650.73  2.30292e-16 
    3652.48  2.27908e-16 
    3654.24  2.26039e-16 
    3655.99  2.25773e-16 
    3657.75  2.31689e-16 
    3659.51  2.40622e-16 
    3661.26  2.39982e-16 
    3663.02  2.36136e-16 
    3664.77  2.31282e-16 
    3666.53  2.36763e-16 
    3668.28   2.3916e-16 
    3670.04  2.40483e-16 
    3671.79  2.40099e-16 
    3673.55  2.36639e-16 
    3675.31  2.31792e-16 
    3677.06  2.23716e-16 
    3678.82  2.24829e-16 
    3680.57  2.33979e-16 
    3682.33  2.46037e-16 
    3684.08  2.45484e-16 
    3685.84  2.42515e-16 
    3687.59  2.32877e-16 
    3689.35  2.29063e-16 
    3691.11   2.1943e-16 
    3692.86  2.18843e-16 
    3694.62  2.15921e-16 
    3696.37  2.17941e-16 
    3698.13  2.15398e-16 
    3699.88  2.19932e-16 
    3701.64  2.14329e-16 
    3703.39  2.12387e-16 
    3705.15  2.05973e-16 
    3706.91  2.07378e-16 
    3708.66  2.08742e-16 
    3710.42  2.15618e-16 
    3712.17  2.18705e-16 
    3713.93  2.14189e-16 
    3715.68  2.04824e-16 
    3717.44  1.99586e-16 
    3719.19  2.02648e-16 
    3720.95  2.00409e-16 
    3722.71  1.98531e-16 
    3724.46  1.93696e-16 
    3726.22  2.00499e-16 
    3727.97  2.05141e-16 
    3729.73  2.07465e-16 
    3731.48  2.12556e-16 
    3733.24  2.15865e-16 
     3735.0  2.15289e-16 
    3736.75  2.09527e-16 
    3738.51  2.13185e-16 
    3740.26  2.19711e-16 
    3742.02  2.21682e-16 
    3743.77  2.15854e-16 
    3745.53  2.06372e-16 
    3747.28   1.9381e-16 
    3749.04  1.88317e-16 
     3750.8  1.89385e-16 
    3752.55  1.94994e-16 
    3754.31  1.97778e-16 
    3756.06  1.89248e-16 
    3757.82  1.84833e-16 
    3759.57  1.79764e-16 
    3761.33   1.8024e-16 
    3763.08  1.75864e-16 
    3764.84  1.62867e-16 
     3766.6  1.62108e-16 
    3768.35  1.67743e-16 
    3770.11  1.75038e-16 
    3771.86  1.74493e-16 
    3773.62  1.67729e-16 
    3775.37  1.64618e-16 
    3777.13  1.65439e-16 
    3778.88  1.58639e-16 
    3780.64  1.54731e-16 
     3782.4  1.43024e-16 
    3784.15  1.42939e-16 
    3785.91  1.38074e-16 
    3787.66  1.37236e-16 
    3789.42  1.36297e-16 
    3791.17  1.40949e-16 
    3792.93  1.45158e-16 
    3794.68  1.44075e-16 
    3796.44  1.37896e-16 
     3798.2   1.3207e-16 
    3799.95  1.27024e-16 
    3801.71  1.27695e-16 
    3803.46  1.34051e-16 
    3805.22  1.45421e-16 
    3806.97  1.50232e-16 
    3808.73  1.44037e-16 
    3810.48  1.33024e-16 
    3812.24  1.29134e-16 
     3814.0  1.34147e-16 
    3815.75  1.39279e-16 
    3817.51  1.42644e-16 
    3819.26  1.42736e-16 
    3821.02  1.43974e-16 
    3822.77    1.418e-16 
    3824.53  1.42707e-16 
    3826.28  1.42677e-16 
    3828.04  1.48765e-16 
     3829.8  1.55615e-16 
    3831.55  1.61662e-16 
    3833.31   1.6569e-16 
    3835.06  1.61601e-16 
    3836.82  1.66298e-16 
    3838.57  1.70804e-16 
    3840.33  1.79223e-16 
    3842.08  1.79678e-16 
    3843.84  1.80855e-16 
     3845.6  1.84277e-16 
    3847.35  1.90353e-16 
    3849.11  1.94647e-16 
    3850.86  1.90881e-16 
    3852.62   1.9148e-16 
    3854.37  1.91244e-16 
    3856.13  1.99946e-16 
    3857.88  2.01077e-16 
    3859.64  2.03974e-16 
     3861.4  2.08986e-16 
    3863.15  2.13706e-16 
    3864.91  2.14619e-16 
    3866.66  2.11033e-16 
    3868.42  2.13395e-16 
    3870.17  2.17305e-16 
    3871.93  2.18894e-16 
    3873.69  2.21745e-16 
    3875.44  2.24464e-16 
     3877.2  2.26203e-16 
    3878.95  2.18479e-16 
    3880.71  2.12935e-16 
    3882.46  2.19021e-16 
    3884.22  2.26829e-16 
    3885.97  2.26075e-16 
    3887.73  2.27683e-16 
    3889.49  2.34173e-16 
    3891.24  2.42646e-16 
     3893.0   2.3712e-16 
    3894.75  2.31104e-16 
    3896.51  2.32698e-16 
    3898.26  2.34761e-16 
    3900.02  2.36752e-16 
    3901.77  2.35305e-16 
    3903.53  2.36374e-16 
    3905.29  2.39513e-16 
    3907.04  2.43561e-16 
     3908.8  2.51334e-16 
    3910.55  2.53498e-16 
    3912.31  2.51398e-16 
    3914.06  2.49773e-16 
    3915.82   2.4843e-16 
    3917.57   2.5961e-16 
    3919.33  2.67121e-16 
    3921.09  2.72697e-16 
    3922.84  2.70621e-16 
     3924.6  2.64192e-16 
    3926.35  2.64885e-16 
    3928.11  2.66675e-16 
    3929.86  2.74806e-16 
    3931.62  2.82078e-16 
    3933.37  2.84216e-16 
    3935.13  2.83994e-16 
    3936.89   2.9214e-16 
    3938.64  2.96582e-16 
     3940.4   2.9766e-16 
    3942.15  2.94203e-16 
    3943.91  2.99754e-16 
    3945.66   2.9968e-16 
    3947.42  2.98054e-16 
    3949.17  2.93825e-16 
    3950.93  3.04401e-16 
    3952.69  3.09359e-16 
    3954.44  3.10848e-16 
     3956.2  3.05344e-16 
    3957.95  2.97404e-16 
    3959.71  2.92524e-16 
    3961.46  2.99401e-16 
    3963.22  2.97779e-16 
    3964.97  3.00725e-16 
    3966.73  2.90066e-16 
    3968.49  2.88486e-16 
    3970.24  2.93808e-16 
     3972.0  2.92325e-16 
    3973.75  2.93455e-16 
    3975.51  2.89312e-16 
    3977.26  2.84998e-16 
    3979.02   2.8106e-16 
    3980.77   2.7343e-16 
    3982.53  2.70813e-16 
    3984.29  2.70684e-16 
    3986.04  2.64158e-16 
     3987.8  2.57206e-16 
    3989.55   2.5298e-16 
    3991.31  2.55333e-16 
    3993.06  2.57314e-16 
    3994.82  2.59342e-16 
    3996.57  2.60464e-16 
    3998.33  2.62519e-16 
    4000.09  2.60178e-16 
    4001.84  2.54669e-16 
     4003.6  2.53365e-16 
    4005.35  2.46523e-16 
    4007.11  2.41362e-16 
    4008.86  2.36249e-16 
    4010.62  2.39006e-16 
    4012.38  2.46345e-16 
    4014.13  2.48739e-16 
    4015.89   2.4693e-16 
    4017.64  2.41863e-16 
     4019.4  2.35425e-16 
    4021.15  2.32751e-16 
    4022.91  2.32735e-16 
    4024.66   2.3817e-16 
    4026.42  2.36345e-16 
    4028.18  2.29687e-16 
    4029.93  2.27448e-16 
    4031.69  2.33565e-16 
    4033.44  2.37611e-16 
     4035.2  2.42143e-16 
    4036.95  2.43476e-16 
    4038.71  2.49948e-16 
    4040.46  2.54204e-16 
    4042.22  2.54734e-16 
    4043.98  2.52788e-16 
    4045.73  2.52756e-16 
    4047.49  2.37865e-16 
    4049.24  2.33056e-16 
     4051.0  2.31045e-16 
    4052.75   2.4176e-16 
    4054.51  2.47206e-16 
    4056.26  2.48989e-16 
    4058.02  2.51293e-16 
    4059.78  2.53939e-16 
    4061.53  2.49433e-16 
    4063.29  2.45416e-16 
    4065.04  2.35683e-16 
     4066.8  2.29654e-16 
    4068.55  2.31506e-16 
    4070.31  2.34625e-16 
    4072.06  2.37362e-16 
    4073.82  2.31059e-16 
    4075.58  2.28944e-16 
    4077.33  2.33213e-16 
    4079.09   2.3215e-16 
    4080.84  2.27459e-16 
     4082.6  2.18742e-16 
    4084.35  2.18831e-16 
    4086.11  2.21819e-16 
    4087.86  2.24786e-16 
    4089.62  2.31592e-16 
    4091.38  2.35864e-16 
    4093.13  2.36354e-16 
    4094.89  2.35994e-16 
    4096.64  2.37075e-16 
     4098.4  2.39244e-16 
    4100.15  2.42234e-16 
    4101.91   2.4166e-16 
    4103.66  2.40692e-16 
    4105.42  2.35786e-16 
    4107.18   2.3043e-16 
    4108.93  2.30001e-16 
    4110.69  2.31291e-16 
    4112.44  2.36004e-16 
     4114.2  2.34684e-16 
    4115.95  2.30199e-16 
    4117.71   2.2712e-16 
    4119.46  2.24146e-16 
    4121.22    2.248e-16 
    4122.98  2.23512e-16 
    4124.73  2.21121e-16 
    4126.49  2.17822e-16 
    4128.24  2.12014e-16 
     4130.0  2.06947e-16 
    4131.75  1.99855e-16 
    4133.51  1.94347e-16 
    4135.26  1.95541e-16 
    4137.02  2.02501e-16 
    4138.78  2.07081e-16 
    4140.53  2.09002e-16 
    4142.29  2.08764e-16 
    4144.04  2.06251e-16 
     4145.8  2.07134e-16 
    4147.55  2.03391e-16 
    4149.31  1.99137e-16 
    4151.06  2.00358e-16 
    4152.82  2.01081e-16 
    4154.58  2.02665e-16 
    4156.33  1.96464e-16 
    4158.09  1.99222e-16 
    4159.84  2.03105e-16 
     4161.6  2.05979e-16 
    4163.35  2.00825e-16 
    4165.11  2.02369e-16 
    4166.87  1.97556e-16 
    4168.62  2.01351e-16 
    4170.38  2.03773e-16 
    4172.13   2.1863e-16 
    4173.89  2.18597e-16 
    4175.64  2.17343e-16 
     4177.4   2.1015e-16 
    4179.15  2.12101e-16 
    4180.91   2.1652e-16 
    4182.67  2.18501e-16 
    4184.42  2.23377e-16 
    4186.18   2.2248e-16 
    4187.93  2.19903e-16 
    4189.69  2.11399e-16 
    4191.44   2.1092e-16 
     4193.2  2.11101e-16 
    4194.95  2.12143e-16 
    4196.71  2.12017e-16 
    4198.47  2.13696e-16 
    4200.22  2.14753e-16 
    4201.98  2.10603e-16 
    4203.73  2.02352e-16 
    4205.49  1.91735e-16 
    4207.24  1.84928e-16 
     4209.0  1.88205e-16 
    4210.75   1.9265e-16 
    4212.51  1.97526e-16 
    4214.27  2.01064e-16 
    4216.02  2.02403e-16 
    4217.78  1.96193e-16 
    4219.53  1.86479e-16 
    4221.29  1.80826e-16 
    4223.04  1.81346e-16 
     4224.8  1.84984e-16 
    4226.55   1.8969e-16 
    4228.31  1.94568e-16 
    4230.07  1.97202e-16 
    4231.82  1.96336e-16 
    4233.58  1.92682e-16 
    4235.33  1.88984e-16 
    4237.09  1.90109e-16 
    4238.84  1.91123e-16 
     4240.6  1.89242e-16 
    4242.35  1.91137e-16 
    4244.11  1.90988e-16 
    4245.87  1.96333e-16 
    4247.62   1.9985e-16 
    4249.38  1.98468e-16 
    4251.13  1.97938e-16 
    4252.89  1.91882e-16 
    4254.64   1.9629e-16 
     4256.4  1.97952e-16 
    4258.15  2.05266e-16 
    4259.91  2.06715e-16 
    4261.67   2.0419e-16 
    4263.42  1.98177e-16 
    4265.18  1.93239e-16 
    4266.93  1.93707e-16 
    4268.69  1.98138e-16 
    4270.44  2.01424e-16 
     4272.2  2.02805e-16 
    4273.95  2.01021e-16 
    4275.71  2.01436e-16 
    4277.47  2.03755e-16 
    4279.22  2.00146e-16 
    4280.98  1.94872e-16 
    4282.73  1.86606e-16 
    4284.49   1.9138e-16 
    4286.24  1.97823e-16 
     4288.0  1.98719e-16 
    4289.75  1.97367e-16 
    4291.51  1.91924e-16 
    4293.27  1.89509e-16 
    4295.02  1.83269e-16 
    4296.78  1.84071e-16 
    4298.53  1.85265e-16 
    4300.29  1.86153e-16 
    4302.04  1.83619e-16 
