# STATUS =
# OBJECT = PS112bqf
# TELESCOPE = MMT
# INSTRUMENT = Blue_Channel
# DATE-OBS =
# MJD = 56245.2
# EXPTIME = 3000
# AIRMASS = 1.2
# SLIT =
# DISPERSER = 300GPM
# SOURCE = 2018ApJ...852...81L
# FILTER = none
# RESOLUTION =
# FLUX_STANDARD =
# EXTINCTION_CORRECTED = True
# PHOTOMETRY_CALIBRATED =
# TELLURIC_CORRECTED =
# FLUX_UNITS =
# WAVE_UNITS = AA
# QUALITY =
# MIN_WAVE =
# MAX_WAVE =
# COMMENT = Obtained from private comm. with Lunnan
 Wavelength             Flux 
    3313.95     0.0565555021 
     3315.9     0.0292866435 
    3317.85     0.0130086811 
     3319.8     0.0426828116 
    3321.75     0.0579165407 
     3323.7     0.0177049972 
    3325.65     0.0177202318 
     3327.6     0.0250441134 
    3329.55     0.0189769063 
     3331.5     0.0297470018 
    3333.45     0.0157757998 
     3335.4     0.0160590615 
    3337.35     0.0133485673 
     3339.3     0.0145887146 
    3341.25      0.023728637 
     3343.2     0.0214746539 
    3345.15     0.0244926028 
     3347.1     0.0182452686 
    3349.05     0.0204559937 
     3351.0     0.0199093018 
    3352.95     0.0135942446 
     3354.9     0.0158228185 
    3356.85     0.0026500856 
     3358.8     0.0128277708 
    3360.75     0.0126177743 
     3362.7     0.0147072449 
    3364.65      0.062632136 
     3366.6     0.0676925927 
    3368.55     0.0250123665 
     3370.5     0.0287664775 
    3372.45     0.0312027782 
     3374.4     0.0310472995 
    3376.35     0.0370734967 
     3378.3     0.0443064682 
    3380.25     0.0217282344 
     3382.2   3.20982654e-05 
    3384.15     0.0176332183 
     3386.1    0.00723975431 
    3388.05     0.0166377779 
     3390.0     0.0531192534 
    3391.95     0.0211192574 
     3393.9    -0.0185860284 
    3395.85    -0.0016744996 
     3397.8     0.0318221711 
    3399.75      0.036030449 
     3401.7     0.0280904453 
    3403.65     0.0320166089 
     3405.6    0.00140338251 
    3407.55    0.00370284752 
     3409.5     0.0292955134 
    3411.45     0.0125064142 
     3413.4    0.00679029385 
    3415.35     0.0147414682 
     3417.3     0.0311153587 
    3419.25    0.00597353745 
     3421.2      0.010881301 
    3423.15     0.0406703502 
     3425.1     0.0482162237 
    3427.05     0.0381629057 
     3429.0     0.0551456362 
    3430.95     0.0331145935 
     3432.9     0.0322161727 
    3434.85     0.0581061505 
     3436.8     0.0136946766 
    3438.75   -0.00354737695 
     3440.7    0.00184352254 
    3442.65    0.00659610936 
     3444.6     0.0216940474 
    3446.55      0.031514667 
     3448.5     0.0406583473 
    3450.45     0.0524051525 
     3452.4     0.0353837982 
    3454.35     0.0386292525 
     3456.3     0.0522090569 
    3458.25     0.0542055555 
     3460.2     0.0202133209 
    3462.15   -0.00380468857 
     3464.1     0.0216391124 
    3466.05     0.0309348572 
     3468.0     0.0046811467 
    3469.95     0.0168528743 
     3471.9      0.039256867 
    3473.85     0.0312157497 
     3475.8     0.0506702587 
    3477.75     0.0390153341 
     3479.7     0.0110508054 
    3481.65     0.0292294715 
     3483.6     0.0441955291 
    3485.55     0.0257084426 
     3487.5    -0.0063418881 
    3489.45    0.00474264938 
     3491.4     0.0246749986 
    3493.35     0.0462542921 
     3495.3     0.0293965247 
    3497.25     0.0322265401 
     3499.2     0.0550481938 
    3501.15     0.0510235541 
     3503.1     0.0162278358 
    3505.05     0.0211976673 
     3507.0     0.0276880264 
    3508.95     0.0272358526 
     3510.9     0.0305344649 
    3512.85      0.038200736 
     3514.8     0.0387382358 
    3516.75     0.0377473682 
     3518.7     0.0245134234 
    3520.65     0.0386114158 
     3522.6     0.0553069636 
    3524.55     0.0461525768 
     3526.5     0.0327630155 
    3528.45     0.0366725102 
     3530.4     0.0274867415 
    3532.35     0.0282412171 
     3534.3     0.0339143835 
    3536.25     0.0295983274 
     3538.2    0.00530530466 
    3540.15     0.0353906676 
     3542.1     0.0377339832 
    3544.05   -0.00727439951 
     3546.0     0.0181770027 
    3547.95     0.0479294024 
     3549.9     0.0153223919 
    3551.85     0.0280604418 
     3553.8     0.0483871326 
    3555.75     0.0250013489 
     3557.7     0.0392614268 
    3559.65     0.0538172461 
     3561.6     0.0208851695 
    3563.55    0.00941227842 
     3565.5     0.0352645069 
    3567.45     0.0323398076 
     3569.4    0.00925909355 
    3571.35     0.0233938303 
     3573.3     0.0372535288 
    3575.25     0.0276873782 
     3577.2     0.0254007932 
    3579.15     0.0185341686 
     3581.1     0.0205281042 
    3583.05     0.0314137116 
     3585.0     0.0306753274 
    3586.95     0.0159326755 
     3588.9     0.0453723744 
    3590.85     0.0513889715 
     3592.8     0.0351541601 
    3594.75     0.0310280342 
     3596.7     0.0359604768 
    3598.65     0.0434467234 
     3600.6     0.0226448141 
    3602.55     0.0358750448 
     3604.5     0.0456668958 
    3606.45     0.0380166732 
     3608.4     0.0138102481 
    3610.35    0.00387368677 
     3612.3      0.023691263 
    3614.25     0.0326295868 
     3616.2     0.0317072682 
    3618.15     0.0416127518 
     3620.1     0.0334537067 
    3622.05     0.0221938323 
     3624.0     0.0387445614 
    3625.95     0.0361415409 
     3627.9     0.0415878482 
    3629.85     0.0312299747 
     3631.8    -0.0020405571 
    3633.75    -0.0085103251 
     3635.7     0.0236098617 
    3637.65     0.0430118963 
     3639.6     0.0591545068 
    3641.55      0.056251701 
     3643.5     0.0313742831 
    3645.45     0.0395398326 
     3647.4     0.0397904776 
    3649.35     0.0300752651 
     3651.3     0.0202872399 
    3653.25     0.0279589165 
     3655.2     0.0124665713 
    3657.15     0.0190818515 
     3659.1     0.0500007719 
    3661.05     0.0354796797 
     3663.0     0.0255829748 
    3664.95     0.0273814555 
     3666.9     0.0475823544 
    3668.85      0.036305733 
     3670.8     0.0283407606 
    3672.75      0.039551992 
     3674.7     0.0330884345 
    3676.65     0.0422044471 
     3678.6     0.0310894642 
    3680.55     0.0345831588 
     3682.5     0.0296213571 
    3684.45     0.0262284484 
     3686.4     0.0128743276 
    3688.35      0.032346379 
     3690.3     0.0357192867 
    3692.25     0.0201100949 
     3694.2     0.0161667801 
    3696.15     0.0229788404 
     3698.1     0.0410153233 
    3700.05     0.0312346909 
     3702.0    0.00946050137 
    3703.95     0.0229948834 
     3705.9     0.0409668386 
    3707.85     0.0371581614 
     3709.8     0.0374540053 
    3711.75     0.0440683104 
     3713.7     0.0258544441 
    3715.65     0.0291071236 
     3717.6     0.0453285612 
    3719.55      0.042656485 
     3721.5     0.0202745385 
    3723.45     0.0290572532 
     3725.4     0.0443908013 
    3727.35     0.0395425856 
     3729.3     0.0323885754 
    3731.25     0.0319489725 
     3733.2     0.0338666253 
    3735.15     0.0281330738 
     3737.1     0.0240608621 
    3739.05     0.0127426889 
     3741.0    0.00933453534 
    3742.95     0.0255243778 
     3744.9     0.0226275735 
    3746.85     0.0198789928 
     3748.8     0.0310114603 
    3750.75     0.0225433409 
     3752.7     0.0317265764 
    3754.65     0.0245569982 
     3756.6     0.0225227792 
    3758.55     0.0326898731 
     3760.5     0.0205219705 
    3762.45     0.0249220971 
     3764.4     0.0263364594 
    3766.35     0.0324270278 
     3768.3     0.0335522704 
    3770.25     0.0346375704 
     3772.2     0.0366253145 
    3774.15     0.0442573503 
     3776.1     0.0266845673 
    3778.05     0.0407691263 
     3780.0     0.0451007113 
    3781.95     0.0271965563 
     3783.9      0.039170336 
    3785.85     0.0252499245 
     3787.8     0.0394129679 
    3789.75     0.0505211726 
     3791.7     0.0323419869 
    3793.65     0.0292668585 
     3795.6     0.0244091842 
    3797.55     0.0315979421 
     3799.5     0.0383889973 
    3801.45     0.0270663332 
     3803.4     0.0259448849 
    3805.35     0.0323643535 
     3807.3     0.0328801647 
    3809.25     0.0246957336 
     3811.2     0.0317326523 
    3813.15     0.0372563004 
     3815.1     0.0418299958 
    3817.05     0.0296317637 
     3819.0     0.0492443107 
    3820.95     0.0432793461 
     3822.9     0.0368715376 
    3824.85     0.0440334305 
     3826.8     0.0359593034 
    3828.75      0.021086758 
     3830.7     0.0430596583 
    3832.65     0.0392181836 
     3834.6     0.0388489328 
    3836.55     0.0277902465 
     3838.5     0.0445621572 
    3840.45     0.0459468998 
     3842.4     0.0415866524 
    3844.35     0.0366954617 
     3846.3     0.0358354896 
    3848.25     0.0324854366 
     3850.2     0.0364356562 
    3852.15     0.0418179445 
     3854.1     0.0380018614 
    3856.05     0.0251660645 
     3858.0     0.0395214893 
    3859.95     0.0346393287 
     3861.9     0.0322036184 
    3863.85     0.0363844484 
     3865.8     0.0428093374 
    3867.75     0.0434937999 
     3869.7     0.0381933972 
    3871.65     0.0420055725 
     3873.6     0.0406952128 
    3875.55     0.0405157432 
     3877.5     0.0433189981 
    3879.45     0.0429523848 
     3881.4     0.0418526754 
    3883.35     0.0431200527 
     3885.3     0.0482936017 
    3887.25     0.0414459147 
     3889.2     0.0391171686 
    3891.15     0.0318143256 
     3893.1     0.0270747039 
    3895.05     0.0347294584 
     3897.0     0.0482227877 
    3898.95     0.0369605087 
     3900.9     0.0372677892 
    3902.85     0.0331840888 
     3904.8     0.0348576047 
    3906.75     0.0528934486 
     3908.7     0.0483769365 
    3910.65     0.0295284465 
     3912.6     0.0347913243 
    3914.55     0.0295951981 
     3916.5     0.0241836421 
    3918.45     0.0495630875 
     3920.4     0.0383829512 
    3922.35     0.0282226913 
     3924.3     0.0377601087 
    3926.25     0.0375505537 
     3928.2     0.0399256237 
    3930.15     0.0389554128 
     3932.1     0.0373555943 
    3934.05     0.0364830084 
     3936.0       0.03501793 
    3937.95     0.0399552472 
     3939.9     0.0402117111 
    3941.85     0.0422524363 
     3943.8     0.0460347049 
    3945.75     0.0435178764 
     3947.7      0.040427424 
    3949.65     0.0499044992 
     3951.6     0.0486658253 
    3953.55     0.0307866242 
     3955.5     0.0327752829 
    3957.45      0.035793867 
     3959.4     0.0269024018 
    3961.35     0.0279001445 
     3963.3     0.0302772094 
    3965.25     0.0324622989 
     3967.2     0.0380425416 
    3969.15     0.0420559645 
     3971.1     0.0505139679 
    3973.05     0.0462861694 
     3975.0     0.0464140624 
    3976.95     0.0458266512 
     3978.9     0.0400638133 
    3980.85     0.0361171477 
     3982.8     0.0405174345 
    3984.75     0.0333310179 
     3986.7     0.0155064249 
    3988.65     0.0355714634 
     3990.6     0.0431863926 
    3992.55     0.0361079499 
     3994.5     0.0369182006 
    3996.45     0.0308284704 
     3998.4     0.0231903642 
    4000.35     0.0274285581 
     4002.3     0.0297276247 
    4004.25     0.0348313935 
     4006.2     0.0233066622 
    4008.15     0.0222443063 
     4010.1     0.0309882034 
    4012.05     0.0223065168 
     4014.0     0.0313713886 
    4015.95     0.0367898121 
     4017.9     0.0217104349 
    4019.85     0.0248925015 
     4021.8     0.0287881028 
    4023.75     0.0244986061 
     4025.7     0.0360042229 
    4027.65     0.0408827588 
     4029.6     0.0413978212 
    4031.55     0.0349461697 
     4033.5     0.0247237198 
    4035.45     0.0287147816 
     4037.4     0.0311865769 
    4039.35     0.0328456536 
     4041.3     0.0426781178 
    4043.25     0.0306960773 
     4045.2     0.0288345516 
    4047.15     0.0437569208 
     4049.1     0.0459312163 
    4051.05     0.0404206999 
     4053.0     0.0186788924 
    4054.95     0.0519027449 
     4056.9     0.0479686186 
    4058.85     0.0179626718 
     4060.8     0.0331739224 
    4062.75     0.0398570038 
     4064.7     0.0316499174 
    4066.65     0.0303513668 
     4068.6     0.0325881615 
    4070.55     0.0447808206 
     4072.5     0.0361031443 
    4074.45     0.0296943821 
     4076.4     0.0316472799 
    4078.35     0.0271114204 
     4080.3     0.0164923519 
    4082.25     0.0376196355 
     4084.2     0.0295571685 
    4086.15     0.0405042805 
     4088.1     0.0447851233 
    4090.05     0.0187016651 
     4092.0     0.0184186082 
    4093.95     0.0333980396 
     4095.9     0.0289848987 
    4097.85     0.0242284574 
     4099.8     0.0373384245 
    4101.75     0.0378946327 
     4103.7     0.0381090567 
    4105.65     0.0322824046 
     4107.6     0.0381401926 
    4109.55     0.0548567735 
     4111.5     0.0474218167 
    4113.45     0.0377980098 
     4115.4     0.0361404084 
    4117.35     0.0437672026 
     4119.3     0.0405195057 
    4121.25     0.0455979295 
     4123.2     0.0425229371 
    4125.15     0.0361001305 
     4127.1     0.0398521647 
    4129.05     0.0481742322 
     4131.0     0.0462959446 
    4132.95     0.0375379957 
     4134.9     0.0444220416 
    4136.85     0.0468908474 
     4138.8     0.0485791564 
    4140.75     0.0459172614 
     4142.7     0.0393482968 
    4144.65     0.0470194556 
     4146.6     0.0339957215 
    4148.55     0.0410487764 
     4150.5     0.0562766045 
    4152.45     0.0476679578 
     4154.4     0.0455192477 
    4156.35     0.0449237861 
     4158.3     0.0549063683 
    4160.25     0.0579669811 
     4162.2     0.0438572206 
    4164.15     0.0454588719 
     4166.1     0.0548310764 
    4168.05     0.0522458777 
     4170.0     0.0467093438 
    4171.95     0.0430642962 
     4173.9     0.0491918102 
    4175.85      0.045448333 
     4177.8     0.0432500057 
    4179.75     0.0480960235 
     4181.7     0.0465454534 
    4183.65     0.0448330455 
     4185.6     0.0538481921 
    4187.55     0.0588458553 
     4189.5     0.0523317344 
    4191.45     0.0525939502 
     4193.4     0.0590381362 
    4195.35     0.0389668867 
     4197.3     0.0445490405 
    4199.25     0.0511494279 
     4201.2     0.0589055382 
    4203.15     0.0613413528 
     4205.1     0.0495763011 
    4207.05     0.0553093255 
     4209.0     0.0598794334 
    4210.95     0.0626785085 
     4212.9     0.0704586357 
    4214.85     0.0587977655 
     4216.8     0.0557268187 
    4218.75     0.0584428385 
     4220.7     0.0671706796 
    4222.65     0.0581388287 
     4224.6     0.0539678633 
    4226.55     0.0507327467 
     4228.5     0.0458347388 
    4230.45     0.0562152378 
     4232.4     0.0621921644 
    4234.35     0.0586855635 
     4236.3     0.0578433424 
    4238.25     0.0674185231 
     4240.2     0.0660466999 
    4242.15     0.0530539788 
     4244.1     0.0435733236 
    4246.05     0.0460826159 
     4248.0     0.0611302257 
    4249.95     0.0548219718 
     4251.9     0.0490303785 
    4253.85     0.0259398166 
     4255.8     0.0243545678 
    4257.75     0.0394486859 
     4259.7     0.0374284349 
    4261.65     0.0405667536 
     4263.6     0.0395245366 
    4265.55     0.0424068421 
     4267.5     0.0366715416 
    4269.45     0.0453162566 
     4271.4     0.0558091365 
    4273.35     0.0525561757 
     4275.3     0.0510895066 
    4277.25      0.054611668 
     4279.2     0.0596951284 
    4281.15     0.0643064082 
     4283.1     0.0547945499 
    4285.05     0.0565642118 
     4287.0     0.0591653436 
    4288.95     0.0449554361 
     4290.9     0.0483849272 
    4292.85     0.0553488508 
     4294.8     0.0569211654 
    4296.75     0.0540694967 
     4298.7     0.0673379526 
    4300.65     0.0573776178 
     4302.6     0.0427328274 
    4304.55     0.0485882163 
     4306.5     0.0506550483 
    4308.45     0.0585461706 
     4310.4     0.0601885095 
    4312.35     0.0430238098 
     4314.3     0.0595474206 
    4316.25     0.0546824113 
     4318.2      0.045751147 
    4320.15     0.0610780306 
     4322.1     0.0658027604 
    4324.05     0.0526865982 
     4326.0     0.0471731275 
    4327.95     0.0579000711 
     4329.9     0.0547192656 
    4331.85     0.0593330376 
     4333.8     0.0616788864 
    4335.75     0.0494299904 
     4337.7     0.0521562435 
    4339.65     0.0513372868 
     4341.6     0.0489217937 
    4343.55     0.0491658933 
     4345.5      0.063769266 
    4347.45     0.0629366934 
     4349.4     0.0483655557 
    4351.35     0.0426642895 
     4353.3     0.0463882908 
    4355.25     0.0623916164 
     4357.2     0.0620690286 
    4359.15     0.0690615326 
     4361.1     0.0728090107 
    4363.05     0.0364453197 
     4365.0     0.0360229015 
    4366.95     0.0488551669 
     4368.9     0.0590725429 
    4370.85     0.0618783198 
     4372.8     0.0561154038 
    4374.75     0.0463078432 
     4376.7     0.0562887192 
    4378.65     0.0670382604 
     4380.6     0.0550611652 
    4382.55     0.0442349166 
     4384.5     0.0489487499 
    4386.45     0.0561461523 
     4388.4     0.0651420355 
    4390.35     0.0649560243 
     4392.3     0.0490888096 
    4394.25      0.041631002 
     4396.2     0.0481799096 
    4398.15       0.05226098 
     4400.1     0.0512319654 
    4402.05     0.0528215542 
     4404.0     0.0540538356 
    4405.95     0.0538035482 
     4407.9     0.0547025725 
    4409.85     0.0604682378 
     4411.8     0.0612988956 
    4413.75     0.0618501008 
     4415.7     0.0646380559 
    4417.65     0.0555890538 
     4419.6      0.053560812 
    4421.55     0.0481813774 
     4423.5     0.0505927913 
    4425.45       0.05633571 
     4427.4     0.0492580757 
    4429.35     0.0474545062 
     4431.3     0.0534796081 
    4433.25     0.0501204692 
     4435.2     0.0453073196 
    4437.15      0.055189807 
     4439.1     0.0664693564 
    4441.05     0.0634114444 
     4443.0     0.0603368841 
    4444.95     0.0545420647 
     4446.9     0.0505771004 
    4448.85      0.056738548 
     4450.8     0.0478743054 
    4452.75     0.0517399386 
     4454.7     0.0562900603 
    4456.65     0.0544306971 
     4458.6     0.0668594763 
    4460.55     0.0599165857 
     4462.5     0.0537447818 
    4464.45     0.0576805882 
     4466.4     0.0609769411 
    4468.35     0.0619954728 
     4470.3     0.0554258712 
    4472.25     0.0481348149 
     4474.2     0.0483532734 
    4476.15     0.0551047586 
     4478.1     0.0569333285 
    4480.05     0.0535832867 
     4482.0     0.0652308613 
    4483.95     0.0586591363 
     4485.9     0.0464636683 
    4487.85     0.0542728044 
     4489.8     0.0546836182 
    4491.75     0.0490094125 
     4493.7     0.0577042587 
    4495.65     0.0655202493 
     4497.6     0.0600864775 
    4499.55     0.0557216145 
     4501.5     0.0562327094 
    4503.45     0.0696374774 
     4505.4     0.0701598302 
    4507.35     0.0707850382 
     4509.3     0.0755170956 
    4511.25     0.0630990043 
     4513.2       0.05615234 
    4515.15     0.0544370972 
     4517.1     0.0643661618 
    4519.05     0.0700858459 
     4521.0     0.0652377754 
    4522.95     0.0610648096 
     4524.9     0.0632002875 
    4526.85     0.0553017296 
     4528.8     0.0632999837 
    4530.75     0.0699563026 
     4532.7     0.0689971745 
    4534.65     0.0667269975 
     4536.6     0.0687094927 
    4538.55     0.0569813177 
     4540.5     0.0474957973 
    4542.45     0.0520973504 
     4544.4     0.0661545023 
    4546.35     0.0676922277 
     4548.3     0.0492177494 
    4550.25      0.052616287 
     4552.2     0.0594920926 
    4554.15     0.0494255573 
     4556.1     0.0595739372 
    4558.05     0.0718240067 
     4560.0     0.0574056655 
    4561.95     0.0547277443 
     4563.9     0.0677005947 
    4565.85     0.0565843545 
     4567.8     0.0384287871 
    4569.75     0.0497592315 
     4571.7     0.0613567121 
    4573.65     0.0563349165 
     4575.6     0.0553290509 
    4577.55     0.0539368875 
     4579.5     0.0535681956 
