# STATUS =
# OBJECT = PS110awh
# TELESCOPE = MMT
# INSTRUMENT = Hectospec
# DATE-OBS = 2010-11-27
# MJD = 55527.0
# EXPTIME =
# AIRMASS = 1.2
# SLIT =
# DISPERSER = 270
# SOURCE = 2011ApJ...743..114C
# FILTER =
# RESOLUTION = 4.9
# FLUX_STANDARD =
# EXTINCTION_CORRECTED =
# PHOTOMETRY_CALIBRATED =
# TELLURIC_CORRECTED =
# FLUX_UNITS =
# WAVE_UNITS =
# QUALITY =
# MIN_WAVE =
# MAX_WAVE =
# COMMENT = Obtained from private comm. with Lunnan
 Wavelength          Flux 
     3701.2     0.0127813 
     3702.4    0.00983707 
     3703.6     0.0148133 
     3704.8    0.00644602 
     3706.0    -0.0068386 
     3707.2    0.00693013 
     3708.4    0.00414241 
     3709.6    0.00627424 
     3710.8   -0.00776872 
     3712.0   -0.00378552 
     3713.2    -0.0114875 
     3714.4   -0.00963325 
     3715.6   -0.00137053 
     3716.8    0.00384882 
     3718.0      0.020507 
     3719.2    0.00468491 
     3720.4       0.01122 
     3721.6     0.0160995 
     3722.8     0.0178446 
     3724.0    0.00224696 
     3725.2  -0.000570779 
     3726.4     0.0230297 
     3727.6    0.00664054 
     3728.8    0.00173664 
     3730.0     0.0209861 
     3731.2     0.0115777 
     3732.4    -0.0106098 
     3733.6     0.0134944 
     3734.8     0.0122326 
     3736.0     0.0105159 
     3737.2   0.000204244 
     3738.4   0.000606887 
     3739.6    0.00934686 
     3740.8    -0.0149725 
     3742.0   -0.00165856 
     3743.2  -0.000696857 
     3744.4    0.00480284 
     3745.6     0.0038077 
     3746.8   -0.00229241 
     3748.0     -0.003035 
     3749.2    0.00390807 
     3750.4     0.0121594 
     3751.6  -0.000547984 
     3752.8    -0.0103803 
     3754.0   0.000259551 
     3755.2     0.0156754 
     3756.4     0.0126437 
     3757.6   -0.00197561 
     3758.8    -0.0041172 
     3760.0   -0.00638081 
     3761.2    -0.0100804 
     3762.4   -0.00847713 
     3763.6   -0.00383299 
     3764.8   -0.00279622 
     3766.0      0.001116 
     3767.2     0.0122982 
     3768.4    0.00739279 
    3769.59   -0.00205506 
    3770.79     0.0183854 
    3771.99     0.0103026 
    3773.19     0.0151101 
    3774.39     0.0169687 
    3775.59    -0.0122478 
    3776.79    0.00548599 
    3777.99   -0.00210434 
    3779.19   -0.00556669 
    3780.39    0.00137951 
    3781.59    0.00874812 
    3782.79   -0.00318481 
    3783.99   -0.00365368 
    3785.19   -0.00548009 
    3786.39   -0.00141528 
    3787.59   -0.00566822 
    3788.79     0.0065912 
    3789.99   -0.00255688 
    3791.19    0.00463444 
    3792.39      0.019597 
    3793.59     0.0153287 
    3794.79     0.0112101 
    3795.99     0.0301477 
    3797.19    0.00585491 
    3798.39   -0.00112067 
    3799.59   -0.00157495 
    3800.79   -0.00134255 
    3801.99    -0.0058031 
    3803.19     0.0189586 
    3804.39    0.00473112 
    3805.59     0.0105715 
    3806.79    0.00293701 
    3807.99    0.00479904 
    3809.19    0.00100673 
    3810.39   -0.00179508 
    3811.59    0.00297734 
    3812.79    0.00641114 
    3813.99     0.0179633 
    3815.19    0.00253691 
    3816.39    0.00492122 
    3817.59       0.01807 
    3818.79     0.0042776 
    3819.99     0.0145099 
    3821.19    0.00285348 
    3822.39     0.0091274 
    3823.59    0.00287474 
    3824.79    0.00743837 
    3825.99     0.0042507 
    3827.19     0.0110595 
    3828.39     0.0118348 
    3829.59   -0.00100111 
    3830.79    0.00588281 
    3831.99    0.00253003 
    3833.19  -0.000496813 
    3834.39     0.0073295 
    3835.59    0.00228422 
    3836.79     0.0132638 
    3837.99    0.00914692 
    3839.19     0.0120251 
    3840.39    0.00729127 
    3841.59   -0.00227189 
    3842.79    0.00701588 
    3843.99     0.0116341 
    3845.19    0.00655811 
    3846.39     0.0152747 
    3847.59      0.014254 
    3848.79   0.000784133 
    3849.99    0.00432808 
    3851.19    0.00141875 
    3852.39    0.00833509 
    3853.59     0.0207092 
    3854.79     0.0185826 
    3855.99   0.000235732 
    3857.19    0.00570627 
    3858.39    0.00756265 
    3859.59    0.00506389 
    3860.79    0.00812763 
    3861.99     0.0123382 
    3863.19    0.00870241 
    3864.39    0.00679776 
    3865.59     0.0212547 
    3866.79    0.00587446 
    3867.99     0.0121718 
    3869.19     0.0035972 
    3870.39    0.00319941 
    3871.59  -0.000411881 
    3872.79     0.0170394 
    3873.99     0.0126497 
    3875.19    0.00814441 
    3876.39     0.0188773 
    3877.59     0.0188913 
    3878.79    0.00909128 
    3879.99     0.0100248 
    3881.19    0.00372719 
    3882.39      0.010028 
    3883.59      0.018992 
    3884.79     0.0186955 
    3885.99    0.00859125 
    3887.19     0.0151281 
    3888.39     0.0121817 
    3889.59     0.0169992 
    3890.79    0.00713021 
    3891.99    0.00641991 
    3893.19    0.00977231 
    3894.39       0.01236 
    3895.59     0.0167917 
    3896.79     0.0100503 
    3897.99     0.0125559 
    3899.19     0.0187381 
    3900.39     0.0259483 
    3901.59     0.0253177 
    3902.79    0.00740808 
    3903.99   0.000793738 
    3905.18     0.0113016 
    3906.39      0.019891 
    3907.58     0.0129123 
    3908.78     0.0156538 
    3909.98     0.0265855 
    3911.18     0.0208271 
    3912.38    0.00487502 
    3913.58    0.00191907 
    3914.78     0.0144096 
    3915.98     0.0278768 
    3917.18     0.0187751 
    3918.38     0.0278548 
    3919.58    0.00812788 
    3920.78     0.0099089 
    3921.98     0.0194711 
    3923.18     0.0172189 
    3924.38    0.00555973 
    3925.58     0.0163767 
    3926.78     0.0249515 
    3927.98     0.0103576 
    3929.18     0.0137346 
    3930.38     0.0112989 
    3931.58     0.0191106 
    3932.78     0.0223289 
    3933.98     0.0299192 
    3935.18    0.00909425 
    3936.38     0.0093553 
    3937.58     0.0193269 
    3938.78     0.0207966 
    3939.98      0.019316 
    3941.18      0.021419 
    3942.38     0.0315394 
    3943.58     0.0148627 
    3944.78     0.0154568 
    3945.98     0.0185024 
    3947.18     0.0195244 
    3948.38     0.0184896 
    3949.58      0.023893 
    3950.78     0.0226083 
    3951.98     0.0243761 
    3953.18      0.014791 
    3954.38    0.00967699 
    3955.58     0.0164037 
    3956.78     0.0320648 
    3957.98      0.022008 
    3959.18     0.0167729 
    3960.38    0.00801858 
    3961.58      0.010586 
    3962.78    0.00713885 
    3963.98    0.00372655 
    3965.18    0.00869135 
    3966.38     0.0155272 
    3967.58     0.0232931 
    3968.78     0.0203788 
    3969.98     0.0209177 
    3971.18     0.0192206 
    3972.38     0.0156194 
    3973.58     0.0213004 
    3974.78     0.0206463 
    3975.98      0.025535 
    3977.18       0.01748 
    3978.38     0.0222075 
    3979.58     0.0218485 
    3980.78     0.0123822 
    3981.98    0.00514407 
    3983.18    0.00916087 
    3984.38    0.00844337 
    3985.58     0.0231777 
    3986.78     0.0142665 
    3987.98     0.0163193 
    3989.18     0.0269225 
    3990.38     0.0265284 
    3991.58     0.0198691 
    3992.78     0.0188782 
    3993.98      0.014304 
    3995.18     0.0226464 
    3996.38      0.021164 
    3997.58     0.0145099 
    3998.78     0.0112333 
    3999.98      0.013553 
    4001.18     0.0117814 
    4002.38     0.0138522 
    4003.58     0.0181534 
    4004.78     0.0205549 
    4005.98     0.0189611 
    4007.18      0.022197 
    4008.38     0.0249946 
    4009.58     0.0184314 
    4010.78     0.0148838 
    4011.98     0.0216055 
    4013.18     0.0135357 
    4014.38     0.0261758 
    4015.58      0.015184 
    4016.78      0.019228 
    4017.98     0.0136039 
    4019.18     0.0301011 
    4020.38     0.0156838 
    4021.58     0.0194065 
    4022.78     0.0260791 
    4023.98     0.0213942 
    4025.18     0.0189211 
    4026.38     0.0190137 
    4027.58      0.026642 
    4028.78     0.0268434 
    4029.98     0.0299603 
    4031.18     0.0207906 
    4032.38     0.0160097 
    4033.58     0.0141975 
    4034.78     0.0186639 
    4035.98    0.00756687 
    4037.18     0.0196264 
    4038.38     0.0222011 
    4039.58     0.0129089 
    4040.77     0.0234975 
    4041.97     0.0203742 
    4043.17     0.0189685 
    4044.37     0.0185921 
    4045.57     0.0308407 
    4046.77     0.0103709 
    4047.97     0.0143427 
    4049.17     0.0254135 
    4050.37     0.0178457 
    4051.57     0.0154094 
    4052.77       0.01078 
    4053.97     0.0125701 
    4055.17     0.0194803 
    4056.37     0.0183809 
    4057.57     0.0161537 
    4058.77     0.0129854 
    4059.97     0.0196982 
    4061.17     0.0170158 
    4062.37     0.0235994 
    4063.57     0.0208646 
    4064.77     0.0200079 
    4065.97     0.0223946 
    4067.17     0.0166731 
    4068.37     0.0212767 
    4069.57     0.0118027 
    4070.77     0.0163573 
    4071.97     0.0128085 
    4073.17     0.0213351 
    4074.37     0.0148037 
    4075.57     0.0250691 
    4076.77     0.0181309 
    4077.97     0.0198812 
    4079.17     0.0200978 
    4080.37     0.0155097 
    4081.57     0.0176596 
    4082.77     0.0189044 
    4083.97      0.021544 
    4085.17     0.0174245 
    4086.37     0.0118421 
    4087.57     0.0187805 
    4088.77      0.024103 
    4089.97     0.0169101 
    4091.17     0.0198586 
    4092.37     0.0176371 
    4093.57     0.0130065 
    4094.77     0.0189375 
    4095.97     0.0169381 
    4097.17     0.0118206 
    4098.37     0.0141674 
    4099.57     0.0238273 
    4100.77     0.0259367 
    4101.97     0.0139353 
    4103.17      0.013236 
    4104.37     0.0143169 
    4105.57     0.0237749 
    4106.77     0.0192608 
    4107.97     0.0147754 
    4109.17    0.00885963 
    4110.37     0.0225073 
    4111.57     0.0186852 
    4112.77      0.010541 
    4113.97     0.0125838 
    4115.17     0.0169489 
    4116.37     0.0189162 
    4117.57     0.0208218 
    4118.77     0.0148172 
    4119.97     0.0170364 
    4121.17      0.015617 
    4122.37     0.0161999 
    4123.57     0.0199562 
    4124.77     0.0179379 
    4125.97     0.0229587 
    4127.17     0.0197834 
    4128.37     0.0165024 
    4129.57     0.0209983 
    4130.77     0.0171838 
    4131.97     0.0141729 
    4133.17    0.00808884 
    4134.37     0.0190257 
    4135.57     0.0107957 
    4136.77     0.0112756 
    4137.97     0.0140343 
    4139.17     0.0160568 
    4140.37     0.0238532 
    4141.57     0.0110877 
    4142.77     0.0141607 
    4143.97     0.0231178 
    4145.17     0.0198965 
    4146.37     0.0156002 
    4147.57     0.0167703 
    4148.77     0.0150536 
    4149.97     0.0218019 
    4151.17    0.00971011 
    4152.37     0.0111375 
    4153.57     0.0146251 
    4154.77     0.0157121 
    4155.97     0.0205285 
    4157.17      0.014862 
    4158.37     0.0206169 
    4159.57     0.0184552 
    4160.77      0.019243 
    4161.97     0.0275869 
    4163.17     0.0237666 
    4164.37     0.0162123 
    4165.57     0.0153343 
    4166.77    0.00985817 
    4167.97     0.0170931 
    4169.17     0.0246466 
    4170.37     0.0174926 
    4171.57     0.0122763 
    4172.77     0.0184612 
    4173.97     0.0182254 
    4175.17     0.0118628 
    4176.37    0.00828588 
    4177.56     0.0183855 
    4178.77     0.0120598 
    4179.96     0.0104513 
    4181.16     0.0155901 
    4182.36     0.0135004 
    4183.56    0.00588824 
    4184.76    0.00919142 
    4185.96     0.0155963 
    4187.16     0.0153907 
    4188.36     0.0110947 
    4189.56     0.0131981 
    4190.76     0.0118534 
    4191.96     0.0164546 
    4193.16     0.0201617 
    4194.36     0.0184552 
    4195.56     0.0133149 
    4196.76     0.0169353 
    4197.96     0.0124345 
    4199.16     0.0086669 
    4200.36    0.00718112 
    4201.56      0.011466 
    4202.76    0.00561537 
    4203.96    0.00885891 
    4205.16     0.0112416 
    4206.36     0.0191238 
    4207.56     0.0179445 
    4208.76     0.0161582 
    4209.96    0.00773166 
    4211.16    0.00878742 
    4212.36     0.0114976 
    4213.56     0.0122959 
    4214.76    0.00669918 
    4215.96    0.00298864 
    4217.16    0.00605304 
    4218.36     0.0100075 
    4219.56     0.0143262 
    4220.76     0.0116191 
    4221.96     0.0146208 
    4223.16     0.0117356 
    4224.36    0.00929449 
    4225.56    0.00494827 
    4226.76    0.00888848 
    4227.96     0.0115472 
    4229.16     0.0133244 
    4230.36      0.014175 
    4231.56     0.0163243 
    4232.76      0.012986 
    4233.96    0.00994948 
    4235.16     0.0108293 
    4236.36    0.00291522 
    4237.56    0.00736477 
    4238.76     0.0012422 
    4239.96    0.00755746 
    4241.16     0.0125443 
    4242.36    0.00741061 
    4243.56     0.0113741 
    4244.76     0.0196143 
    4245.96     0.0120896 
    4247.16    0.00592875 
    4248.36    0.00735442 
    4249.56    0.00447281 
    4250.76     0.0120012 
    4251.96    0.00552318 
    4253.16    0.00742323 
    4254.36      0.013697 
    4255.56     0.0073873 
    4256.76     0.0152904 
    4257.96     0.0125188 
    4259.16     0.0138715 
    4260.36     0.0149991 
    4261.56     0.0122615 
    4262.76     0.0182364 
    4263.96    0.00758085 
    4265.16     0.0105125 
    4266.36     0.0108969 
    4267.56     0.0100937 
    4268.76    0.00697924 
    4269.96     0.0112742 
    4271.16     0.0161684 
    4272.36     0.0182402 
    4273.56     0.0101383 
    4274.76     0.0046647 
    4275.96     0.0114223 
    4277.16     0.0144629 
    4278.36     0.0130435 
    4279.56     0.0179982 
    4280.76     0.0172135 
    4281.96     0.0227252 
    4283.16     0.0137403 
    4284.36     0.0151813 
    4285.56  -5.23777e-05 
    4286.76    0.00598135 
    4287.96    0.00228218 
    4289.16    0.00498159 
    4290.36      0.017209 
    4291.56     0.0156492 
    4292.76      0.012763 
    4293.96  -4.74544e-06 
    4295.16    0.00997405 
    4296.36     0.0179094 
    4297.56     0.0132556 
    4298.76     0.0101201 
    4299.96     0.0213378 
    4301.16     0.0110955 
    4302.36     0.0155274 
    4303.56     0.0190942 
    4304.76     0.0191862 
    4305.96     0.0218917 
    4307.16     0.0141067 
    4308.36    0.00991504 
    4309.56     0.0127102 
    4310.76     0.0194991 
    4311.96     0.0238329 
    4313.15     0.0190249 
    4314.35     0.0160854 
    4315.55     0.0147464 
    4316.75     0.0138039 
    4317.95     0.0128527 
    4319.15      0.014442 
    4320.35     0.0176669 
    4321.55     0.0172559 
    4322.75     0.0112268 
    4323.95     0.0118934 
    4325.15      0.013626 
    4326.35    0.00895511 
    4327.55     0.0100636 
    4328.75     0.0153547 
    4329.95     0.0181562 
    4331.15      0.019101 
    4332.35     0.0157162 
    4333.55     0.0175529 
    4334.75     0.0175651 
    4335.95     0.0166923 
    4337.15     0.0201678 
    4338.35     0.0180869 
    4339.55     0.0155819 
    4340.75     0.0167062 
    4341.95     0.0204042 
    4343.15     0.0177387 
    4344.35     0.0102162 
    4345.55     0.0109754 
    4346.75     0.0201487 
    4347.95     0.0194955 
    4349.15     0.0216466 
    4350.35       0.01586 
    4351.55     0.0219218 
    4352.75     0.0155084 
    4353.95     0.0183292 
    4355.15     0.0129693 
    4356.35    0.00908927 
    4357.55     0.0189308 
    4358.75     0.0152924 
    4359.95   -0.00237969 
    4361.15    0.00741539 
    4362.35     0.0142841 
    4363.55     0.0175642 
    4364.75      0.017893 
    4365.95     0.0180563 
    4367.15     0.0199705 
    4368.35     0.0195619 
    4369.55     0.0180292 
    4370.75     0.0138273 
    4371.95     0.0169934 
    4373.15     0.0167803 
    4374.35      0.011486 
    4375.55     0.0124053 
    4376.75     0.0175426 
    4377.95     0.0136141 
    4379.15     0.0156584 
    4380.35     0.0244579 
    4381.55     0.0214466 
    4382.75     0.0151783 
    4383.95     0.0148447 
    4385.15     0.0145112 
    4386.35     0.0175123 
    4387.55      0.014203 
    4388.75     0.0162199 
    4389.95     0.0165078 
    4391.15     0.0176287 
    4392.35     0.0167985 
    4393.55     0.0167759 
    4394.75     0.0180094 
    4395.95     0.0230542 
    4397.15     0.0151982 
    4398.35     0.0116878 
    4399.55     0.0230322 
    4400.75     0.0136137 
    4401.95     0.0101421 
    4403.15     0.0177937 
    4404.35     0.0192266 
    4405.55     0.0165944 
    4406.75     0.0151273 
    4407.95     0.0220534 
    4409.15     0.0209623 
    4410.35     0.0130455 
    4411.55     0.0135499 
    4412.75     0.0177493 
    4413.95     0.0204716 
    4415.15     0.0228302 
    4416.35     0.0266803 
    4417.55     0.0245875 
    4418.75      0.016779 
    4419.95    0.00856368 
    4421.15     0.0103074 
    4422.35     0.0100852 
    4423.55     0.0146346 
    4424.75     0.0198656 
    4425.95     0.0170018 
    4427.15       0.01857 
    4428.35     0.0158871 
    4429.55     0.0196333 
    4430.75     0.0218202 
    4431.95     0.0169243 
    4433.15     0.0139998 
    4434.35     0.0180546 
    4435.55     0.0165427 
    4436.75      0.013391 
    4437.95     0.0188511 
    4439.15      0.018883 
    4440.35     0.0253474 
    4441.55     0.0220863 
    4442.75     0.0164761 
    4443.95     0.0158058 
    4445.15     0.0186068 
    4446.35     0.0225397 
    4447.54     0.0233037 
    4448.75     0.0141234 
    4449.94     0.0155798 
    4451.15     0.0196267 
    4452.34     0.0217447 
    4453.54     0.0160476 
    4454.74     0.0195457 
    4455.94     0.0209608 
    4457.14      0.019835 
    4458.34     0.0173811 
    4459.54      0.013934 
    4460.74     0.0204876 
    4461.94     0.0134753 
    4463.14      0.012447 
    4464.34      0.016388 
    4465.54     0.0182757 
    4466.74      0.017405 
    4467.94     0.0193185 
    4469.14       0.01601 
    4470.34     0.0132497 
    4471.54     0.0106036 
    4472.74     0.0104584 
    4473.94     0.0140751 
    4475.14     0.0159557 
    4476.34     0.0115094 
    4477.54     0.0182325 
    4478.74     0.0210758 
    4479.94     0.0163977 
    4481.14      0.017272 
    4482.34     0.0125256 
    4483.54     0.0180205 
    4484.74     0.0235025 
    4485.94     0.0257498 
    4487.14     0.0237471 
    4488.34     0.0264751 
    4489.54      0.024354 
    4490.74     0.0203801 
    4491.94     0.0168913 
    4493.14     0.0180596 
    4494.34      0.016399 
    4495.54     0.0174555 
    4496.74     0.0171662 
    4497.94    0.00993093 
    4499.14     0.0135864 
    4500.34     0.0165115 
    4501.54     0.0226203 
    4502.74     0.0253441 
    4503.94     0.0244699 
    4505.14     0.0204195 
    4506.34     0.0177491 
    4507.54     0.0234299 
    4508.74     0.0156468 
    4509.94     0.0143665 
    4511.14      0.022479 
    4512.34      0.025238 
    4513.54     0.0194895 
    4514.74     0.0163995 
    4515.94     0.0207246 
    4517.14      0.021654 
    4518.34     0.0256852 
    4519.54     0.0227751 
    4520.74     0.0171815 
    4521.94     0.0221698 
    4523.14     0.0230612 
    4524.34     0.0211971 
    4525.54     0.0270648 
    4526.74     0.0193503 
    4527.94      0.021178 
    4529.14     0.0187953 
    4530.34     0.0133767 
    4531.54     0.0124068 
    4532.74     0.0144026 
    4533.94     0.0184343 
    4535.14     0.0182121 
    4536.34     0.0236911 
    4537.54     0.0216172 
    4538.74     0.0210482 
    4539.94     0.0215031 
    4541.14     0.0159257 
    4542.34     0.0205085 
    4543.54     0.0189676 
    4544.74      0.022711 
    4545.94     0.0214285 
    4547.14    0.00985846 
    4548.34     0.0134878 
    4549.54     0.0175894 
    4550.74      0.013598 
    4551.94     0.0149638 
    4553.14      0.019815 
    4554.34     0.0271554 
    4555.54     0.0250149 
    4556.74     0.0278864 
    4557.94     0.0197861 
    4559.14     0.0131317 
    4560.34     0.0161877 
    4561.54     0.0181745 
    4562.74     0.0188726 
    4563.94     0.0238607 
    4565.14     0.0242135 
    4566.34     0.0226962 
    4567.54     0.0206405 
