# STATUS =
# OBJECT = 2019sgh
# TELESCOPE = MMT
# INSTRUMENT = Binospec
# DATE-OBS = 2019-11-19
# MJD = 58806.115076
# EXPTIME = 3000.0
# AIRMASS = 1.108
# SLIT = 1.0
# DISPERSER = x270
# SOURCE = FLEET
# FILTER = Clear
# RESOLUTION =
# FLUX_STANDARD =
# EXTINCTION_CORRECTED = False
# PHOTOMETRY_CALIBRATED = False
# TELLURIC_CORRECTED = False
# FLUX_UNITS = erg / (s cm2 AA)
# WAVE_UNITS = AA
# QUALITY =
# MIN_WAVE =
# MAX_WAVE =
# COMMENT =
  Wavelength        Flux 
 3827.135972    38.36626 
 3828.419586    36.69365 
 3829.703218    29.12541 
 3830.986868    26.81757 
 3832.270535    22.90629 
  3833.55422    30.54656 
 3834.837922    10.53224 
 3836.121642    12.07975 
  3837.40538    31.08554 
 3838.689136    29.96557 
  3839.97291    23.56261 
 3841.256701    35.63634 
  3842.54051    29.35265 
 3843.824336    16.84366 
  3845.10818    34.93585 
 3846.392042    43.20243 
 3847.675922    34.10137 
 3848.959819    32.37001 
 3850.243734    12.61782 
 3851.527667    29.62902 
 3852.811617    23.81434 
 3854.095585    39.04999 
 3855.379571    32.44832 
 3856.663574    23.32163 
 3857.947595    39.31088 
 3859.231634    37.53651 
 3860.515691    27.91874 
 3861.799765    26.37978 
 3863.083857    40.41209 
 3864.367966     19.9438 
 3865.652093    41.34266 
 3866.936238      20.843 
 3868.220401    36.33553 
 3869.504581    16.08726 
 3870.788779    11.45314 
 3872.072994    24.97195 
 3873.357227    38.11918 
 3874.641478    39.34904 
 3875.925747    26.63355 
 3877.210033    32.98005 
 3878.494337    36.83687 
 3879.778658    32.27148 
 3881.062997    34.13446 
 3882.347354    8.694131 
 3883.631728    50.08518 
  3884.91612     31.4309 
  3886.20053    19.55646 
 3887.484958    44.63642 
 3888.769403    27.45454 
 3890.053865    22.18068 
 3891.338346    42.64801 
 3892.622844    23.85431 
 3893.907359    17.87701 
 3895.191893    22.58649 
 3896.476443    31.58515 
 3897.761012     29.8604 
 3899.045598    47.80426 
 3900.330202    35.81256 
 3901.614823    44.71236 
 3902.899462    40.92652 
 3904.184119    25.47372 
 3905.468793    42.75936 
 3906.753485    37.91714 
 3908.038195    19.61939 
 3909.322922    22.87107 
 3910.607667    32.84683 
 3911.892429    46.50533 
  3913.17721    18.13408 
 3914.462007    45.84047 
 3915.746823    37.14985 
 3917.031655    44.89512 
 3918.316506    10.61528 
 3919.601374    36.49213 
  3920.88626     34.5843 
 3922.171163    47.14473 
 3923.456084    32.06883 
 3924.741023    51.13151 
 3926.025979    19.28613 
 3927.310953    39.76966 
 3928.595944    57.70149 
 3929.880953     37.7879 
  3931.16598     48.5804 
 3932.451024    30.04125 
 3933.736086    47.10658 
 3935.021165    36.01965 
 3936.306262    31.76003 
 3937.591377    37.38776 
 3938.876509    38.46801 
 3940.161659    27.59386 
 3941.446826    37.72536 
 3942.732011    24.87795 
 3944.017213    56.52639 
 3945.302434    39.51427 
 3946.587671    48.14457 
 3947.872926    51.55358 
 3949.158199    40.77728 
  3950.44349    26.63368 
 3951.728798    41.03871 
 3953.014123    49.94375 
 3954.299466    48.71648 
 3955.584827    36.75438 
 3956.870205    26.99957 
 3958.155601    23.95724 
 3959.441015    51.14102 
 3960.726446    28.23741 
 3962.011894    42.09577 
  3963.29736    52.92854 
 3964.582844    50.90264 
 3965.868345    21.64618 
 3967.153864    53.60188 
   3968.4394    35.95024 
 3971.010526    29.15726 
 3972.296115    40.53326 
 3973.581721    34.92388 
 3974.867345    39.52401 
 3976.152987    61.06755 
 3977.438646    56.38438 
 3978.724323    36.43992 
 3980.010017    54.55036 
 3981.295729    50.76406 
 3982.581459    44.99329 
 3983.867206    32.36886 
  3985.15297    25.25751 
 3986.438752    46.44126 
 3987.724552    48.84518 
 3989.010369    55.32914 
 3990.296203    46.34505 
 3991.582055    48.85043 
 3992.867925     25.4673 
 3994.153812    30.85008 
 3995.439717     35.4771 
 3996.725639    38.11745 
 3998.011579    34.24388 
 3999.297536     25.0803 
 4000.583511    34.14731 
 4001.869503    51.22607 
 4003.155513    34.94693 
 4004.441541    27.73926 
 4005.727586    35.31462 
 4007.013648    38.08221 
 4008.299728    33.01641 
 4009.585825    45.01562 
  4010.87194    38.91924 
 4012.158073    67.07821 
 4013.444223     44.6776 
  4014.73039    43.81931 
 4016.016575    43.50111 
 4017.302777     51.5855 
 4018.588997    52.43033 
 4019.875235    62.64392 
  4021.16149    46.49512 
 4022.447762    25.04668 
 4023.734052    9.211482 
  4025.02036    46.31429 
 4026.306685    54.30924 
 4027.593027    27.95411 
 4028.879387    28.22797 
 4030.165764    45.50019 
 4031.452159     50.7231 
 4032.738571    23.02705 
 4034.025001    51.51822 
 4035.311449    52.27842 
 4036.597913    45.50548 
 4037.884396    33.31892 
 4039.170896    55.03341 
 4040.457413    23.56384 
 4041.743947    46.85284 
   4043.0305    41.48677 
 4044.317069    62.67002 
 4045.603656     24.0242 
 4046.890261    61.66354 
 4048.176883    51.64563 
 4049.463523    42.30526 
  4050.75018    77.83327 
 4052.036854  -0.8026803 
 4053.323546    33.23043 
 4054.610255    26.12084 
 4055.896982    38.99529 
 4057.183727    47.42808 
 4058.470488    46.29328 
 4059.757267    39.87673 
 4061.044064    38.88057 
 4062.330878    61.09022 
  4063.61771    32.05463 
 4064.904559    41.85537 
 4066.191425    32.18093 
 4067.478309     22.2064 
 4068.765211    62.68054 
 4070.052129    45.39344 
 4071.339066    53.02151 
 4072.626019    29.63124 
  4073.91299    70.52322 
 4075.199979    49.11996 
 4076.486985    39.72222 
 4077.774008    39.14532 
 4079.061049    22.00232 
 4080.348107    35.45852 
 4081.635183    31.73828 
 4082.922276    47.58591 
 4084.209387    62.33654 
 4085.496515    34.38094 
  4086.78366    61.50181 
 4088.070823    35.53207 
 4089.358003    48.97705 
 4090.645201    46.56773 
 4091.932416    11.98101 
 4093.219648     48.3641 
 4095.794166    37.39573 
  4097.08145    51.05689 
 4098.368753    37.17916 
 4099.656072    25.26471 
 4100.943409    49.45447 
 4102.230763      49.254 
 4103.518135    21.55634 
 4104.805524    24.80077 
 4106.092931    62.05751 
 4107.380355    33.96769 
 4108.667796    69.06273 
 4109.955255    33.70938 
 4111.242731    41.39104 
 4112.530225    54.01112 
 4113.817736    32.60076 
 4115.105264    60.73248 
  4116.39281    51.45369 
 4117.680373    61.55276 
 4118.967954    64.74258 
 4120.255551    44.00404 
 4121.543167     48.6531 
 4122.830799    40.11648 
 4124.118449    35.37276 
 4125.406117    47.64625 
 4126.693802    31.61907 
 4127.981504    47.12769 
 4129.269223    46.28764 
  4130.55696     47.6482 
 4131.844715    44.18409 
 4133.132486    57.29779 
 4134.420275    35.60935 
 4135.708082    57.50307 
 4136.995906    37.00904 
 4138.283747    68.45613 
 4139.571605    69.96255 
 4140.859481    57.40311 
 4142.147374    42.77495 
 4143.435285    53.81191 
 4144.723213    60.62627 
 4146.011158    66.15642 
 4147.299121    51.90029 
 4148.587101    50.27393 
 4149.875098    72.41411 
 4151.163113    47.76305 
 4152.451145    65.72031 
 4153.739194    65.31301 
 4155.027261    25.98406 
 4156.315345    92.91474 
 4157.603447    73.18761 
 4158.891566    44.18449 
 4160.179702    66.30676 
 4161.467855    53.50563 
 4162.756026    56.12583 
 4164.044214    49.27797 
  4165.33242    43.26084 
 4166.620642    38.43624 
 4167.908883    34.67376 
  4169.19714    60.46407 
 4170.485415    63.01687 
 4171.773707    80.26253 
 4173.062016    60.16881 
 4174.350343    40.10217 
 4175.638687    54.62483 
 4176.927049    31.02124 
 4178.215428    81.01675 
 4179.503824    54.48244 
 4180.792237    58.31239 
 4182.080668     54.2206 
 4183.369116    59.13578 
 4184.657581    66.33685 
 4185.946064    50.80207 
 4187.234564    60.91867 
 4188.523081    66.80905 
 4189.811615    67.51989 
 4191.100167    67.52811 
 4192.388736    21.22165 
 4193.677323    48.45146 
 4194.965927    44.94897 
 4196.254548    75.29142 
 4197.543186     54.0711 
 4198.831842    48.29009 
 4200.120515    83.62175 
 4201.409205    52.20242 
 4202.697913     55.6761 
 4203.986637    51.92025 
  4205.27538    45.04122 
 4206.564139    59.25797 
 4207.852916    77.96769 
  4209.14171    80.34776 
 4210.430521    61.38992 
  4211.71935    62.88074 
 4213.008195    52.66656 
 4214.297058    60.60247 
 4215.585939    51.06231 
 4216.874837    42.83867 
 4218.163752    76.86276 
 4219.452684    59.59806 
 4220.741633    52.30917 
   4222.0306     53.5494 
 4223.319584    62.55981 
 4224.608585    52.78218 
 4225.897604    45.44213 
  4227.18664    66.87902 
 4228.475693    54.68618 
 4229.764763    53.33017 
 4231.053851    57.40104 
 4232.342956    36.09616 
 4233.632078    56.56362 
 4234.921217    57.63052 
 4236.210374    61.65706 
 4237.499548    67.49492 
 4238.788739    40.04716 
 4240.077947    43.35433 
 4241.367173     67.6244 
 4242.656416    47.75869 
 4243.945676     43.7077 
 4245.234953    61.48441 
 4246.524248    60.16951 
  4247.81356    87.46974 
 4249.102889    78.67985 
 4250.392235    50.01157 
 4251.681599    72.76756 
  4252.97098    71.31573 
 4254.260378    23.14246 
 4255.549793    55.83878 
 4256.839226     49.6641 
 4258.128675    67.56863 
 4259.418142    50.86635 
 4260.707627    51.56748 
 4261.997128    67.20379 
 4263.286647    63.61072 
 4264.576183    71.30428 
 4265.865736    64.83052 
 4267.155306    51.06817 
 4268.444894    46.01954 
 4269.734498    60.88943 
  4271.02412    40.69246 
 4272.313759    54.10247 
 4273.603416    59.86337 
 4274.893089    60.53379 
  4276.18278    85.00584 
 4277.472488    55.59258 
 4278.762213    59.93226 
 4280.051956     57.5709 
 4281.341716    58.73006 
 4282.631492    68.68289 
 4283.921286    59.96147 
 4285.211098    30.04512 
 4286.500926    98.41393 
 4287.790772    67.61112 
 4289.080635    73.20123 
 4290.370515    57.03103 
 4291.660412    80.33719 
 4292.950326    78.37527 
 4294.240258    73.89743 
 4295.530207    75.33648 
 4296.820173    80.77377 
 4298.110156    85.31583 
 4299.400156    63.82334 
 4300.690174    74.60279 
 4301.980208    72.85081 
  4303.27026    56.58367 
 4304.560329    62.35089 
 4305.850415    62.54179 
 4307.140519    65.51142 
 4308.430639    51.88468 
 4309.720777    76.85159 
 4311.010932    68.98807 
 4312.301104     76.9987 
 4313.591294    75.82387 
   4314.8815    51.33414 
 4316.171724    37.05823 
 4317.461964    51.82696 
 4318.752222    52.77063 
 4320.042497    82.07684 
 4321.332789    50.43211 
 4322.623099    61.13762 
 4323.913425    41.90321 
 4325.203769    80.36829 
  4326.49413    63.29271 
 4327.784508    53.54329 
 4329.074903    52.33987 
 4330.365315    65.62161 
 4331.655745    65.90762 
 4332.946191    67.46891 
 4334.236655    55.98266 
 4335.527136    47.51504 
 4336.817634    53.18277 
 4338.108149    65.60211 
 4339.398682    42.13397 
 4340.689231    61.06016 
 4341.979798    64.62239 
 4343.270381    64.26509 
 4344.560982    57.36385 
   4345.8516    71.00925 
 4347.142235    38.09682 
 4348.432887    46.20339 
 4349.723557    78.55943 
 4351.014243    54.45198 
 4352.304947    82.65332 
 4353.595668    67.54894 
 4354.886405    46.66596 
  4356.17716    73.42718 
 4357.467932     63.1495 
 4358.758722    71.50497 
 4360.049528    87.81174 
 4361.340351    39.78289 
 4362.631192    43.82371 
  4363.92205    42.40992 
 4365.212924     79.7692 
 4366.503816    93.70734 
 4367.794725    31.94956 
 4369.085651    68.16067 
 4370.376594    81.26865 
 4371.667555     60.1072 
 4372.958532    59.97148 
 4374.249527    59.41194 
 4375.540538    58.77117 
 4376.831567    55.15608 
 4378.122613    76.17169 
 4379.413675    56.04944 
 4380.704755    63.73803 
 4381.995852    52.85658 
 4383.286967    56.39743 
 4384.578098    84.93293 
 4385.869246    47.03352 
 4387.160411     58.0073 
 4388.451594     64.7213 
 4389.742793    57.53178 
  4391.03401    65.80417 
 4392.325244    54.42275 
 4393.616495    68.38152 
 4394.907762    67.05108 
 4396.199047    73.79391 
 4397.490349    70.64752 
 4398.781668     56.0696 
 4400.073005     60.1755 
 4401.364358    96.19174 
 4402.655728    92.62586 
 4403.947115    84.80885 
  4405.23852    55.98396 
 4406.529941    70.71455 
  4407.82138    74.18069 
 4409.112836    74.58861 
 4410.404308    67.04131 
 4411.695798     67.9035 
 4412.987305    62.38415 
 4414.278828    85.01942 
 4415.570369    66.00475 
 4416.861927    71.08418 
 4418.153502    73.77759 
 4419.445094    58.82644 
 4420.736703    54.84369 
 4422.028329    38.78207 
 4423.319973    48.89479 
 4424.611633     61.7448 
  4425.90331    68.53574 
 4427.195004    65.04842 
 4428.486716    61.34658 
 4429.778444    63.96201 
 4431.070189    71.89276 
 4432.361952    67.85203 
 4433.653731    74.16297 
 4434.945528    90.89924 
 4436.237341    53.53755 
 4437.529172    59.71663 
 4438.821019    68.91074 
 4440.112884    68.08295 
 4441.404766    59.35198 
 4442.696664    61.00882 
  4443.98858    63.09522 
 4445.280513    67.40619 
 4446.572462    65.17615 
 4447.864429    78.93748 
 4449.156413     37.3953 
 4450.448413    64.48578 
 4451.740431    43.00293 
 4453.032466    78.73928 
 4454.324518    51.97631 
 4455.616586    58.60238 
 4456.908672    67.33665 
 4458.200775    80.38277 
 4459.492895    84.26193 
 4460.785032    66.06666 
 4462.077185    74.31197 
 4463.369356    58.10211 
 4464.661544    47.40373 
 4465.953749    51.90677 
  4467.24597     74.3548 
 4468.538209     65.7393 
 4469.830465    56.09782 
 4471.122738    88.86318 
 4472.415027    38.77709 
 4473.707334    61.91629 
 4474.999658    73.26062 
 4476.291999    86.77899 
 4477.584356    82.37767 
 4478.876731    94.27911 
 4480.169123    47.29421 
 4481.461531    79.54515 
 4482.753957    55.01705 
 4484.046399    59.08037 
 4485.338859    78.32373 
 4486.631335    72.25069 
 4487.923829    75.84052 
 4489.216339    75.11444 
 4490.508867    74.63549 
 4491.801411    31.49456 
 4493.093972    85.95226 
 4494.386551    89.97407 
 4495.679146     35.5287 
 4496.971758    45.36396 
 4498.264387    41.12312 
 4499.557034    58.92217 
 4500.849697    54.85374 
 4502.142377    33.37798 
 4503.435074    71.18124 
 4504.727788    103.1504 
 4506.020519     97.9308 
 4507.313266    70.57079 
 4508.606031    62.32762 
 4509.898813    77.20348 
 4511.191612    51.71696 
 4512.484427    83.70637 
  4513.77726    73.31168 
  4515.07011    69.36048 
 4516.362976    96.57967 
 4517.655859    61.06128 
  4518.94876    62.86894 
 4520.241677    56.33348 
 4521.534611    50.45787 
 4522.827562    31.14608 
  4524.12053    74.03503 
 4525.413515    89.41228 
 4526.706517     90.5044 
 4527.999536     49.3316 
 4529.292572    59.93144 
 4530.585625    89.64661 
 4531.878694    69.07457 
 4533.171781    83.81682 
 4534.464884    77.19878 
 4535.758005    72.10827 
 4537.051142    69.89426 
 4538.344296    70.09483 
 4539.637467    56.12178 
 4540.930655    47.65582 
  4542.22386    73.39468 
 4543.517082    83.77039 
 4544.810321     51.5555 
 4546.103576     64.5441 
 4547.396849    51.86575 
 4548.690138    88.95857 
 4549.983445    56.08382 
 4551.276768    88.76056 
 4552.570108    109.5498 
 4553.863465     83.5945 
 4555.156839    69.85984 
  4556.45023    64.13577 
 4557.743638    66.17544 
 4559.037062    75.12888 
 4560.330504    83.23269 
 4561.623962    93.06931 
 4562.917438    69.58276 
  4564.21093    101.9763 
 4565.504439    48.91803 
 4566.797965    79.22685 
 4568.091508    60.40123 
 4569.385067    75.27148 
 4570.678644    40.23407 
 4571.972237    87.84768 
 4573.265848    78.62542 
 4574.559475    63.14296 
 4575.853119    84.90295 
  4577.14678    75.88871 
 4578.440458    89.07137 
 4579.734153    61.16422 
 4581.027864    65.14825 
 4582.321592    103.0173 
 4583.615338    72.31931 
   4584.9091    74.58743 
 4586.202879    79.27326 
 4587.496675     63.4688 
 4588.790487    87.62222 
 4590.084317    95.67706 
 4591.378163    110.5273 
 4592.672027    57.76884 
 4593.965907    83.62492 
 4595.259804    78.43363 
 4596.553718    88.44968 
 4597.847648    76.62693 
 4599.141596    63.72461 
  4600.43556    46.27217 
 4601.729541    62.01711 
 4603.023539    92.49857 
 4604.317554    74.68654 
 4605.611586    91.46165 
 4606.905635    85.43329 
   4608.1997    52.63184 
 4609.493782    66.91459 
 4610.787881    85.72208 
 4612.081997    63.54229 
  4613.37613    71.47691 
 4614.670279    46.80764 
 4615.964446    79.41637 
 4617.258629    80.68948 
 4618.552829    51.38235 
 4619.847046     86.4994 
  4621.14128    64.40688 
  4622.43553    99.50724 
 4623.729797    83.45717 
 4625.024082    90.77097 
 4626.318382    81.26199 
   4627.6127    64.23316 
 4628.907035    76.54273 
 4630.201386    65.34079 
 4631.495754    65.15308 
 4632.790139     77.9926 
 4634.084541    71.14795 
  4635.37896    38.52465 
 4636.673395    74.92355 
 4637.967847    65.83692 
 4639.262316    75.92514 
 4640.556802    74.80613 
 4641.851305    84.04633 
 4643.145824    83.01299 
  4644.44036     97.9487 
 4645.734913    68.73151 
 4647.029483    92.14732 
  4648.32407    78.12019 
 4649.618673    72.67875 
 4650.913293    73.66728 
  4652.20793    101.0582 
 4653.502584    82.06123 
 4654.797254    92.44798 
 4656.091942    71.08633 
 4657.386646     57.5779 
 4658.681367    83.42052 
 4659.976104    58.79401 
 4661.270859    72.62608 
  4662.56563    91.87952 
 4663.860418    90.44977 
 4665.155222    92.29633 
 4666.450044    80.44652 
 4667.744882    95.01046 
 4669.039737    83.28274 
 4670.334609     89.7416 
 4671.629498    82.70412 
 4672.924403    92.86433 
 4674.219325    67.71865 
 4675.514264    55.17784 
 4676.809219    113.3235 
 4678.104192    99.26355 
 4679.399181    76.66267 
 4680.694187    79.83817 
 4681.989209    69.91386 
 4683.284249    115.3224 
 4684.579305    113.9875 
 4685.874378    86.46879 
 4687.169467    92.97378 
 4688.464574    70.36099 
 4689.759697    89.87016 
 4691.054836    66.86463 
 4692.349993     88.6136 
 4693.645166    81.50684 
 4694.940356     81.2281 
 4696.235563    95.91264 
 4697.530787    77.85514 
 4698.826027    96.10059 
 4700.121284    51.03945 
 4701.416558    102.6437 
 4702.711848    95.78115 
 4704.007155     99.3461 
 4705.302479    104.3624 
  4706.59782    81.86884 
 4707.893177    110.7497 
 4709.188551    84.80205 
 4710.483942    78.87974 
  4711.77935    75.83128 
 4713.074774     85.6404 
 4714.370215    101.8978 
 4715.665672     85.4907 
 4716.961147    98.12794 
 4718.256638    84.57917 
 4719.552146    72.98317 
  4720.84767    94.90514 
 4722.143211     85.6729 
 4723.438769    49.85879 
 4724.734344    79.47477 
 4726.029935    103.0459 
 4727.325543    91.34726 
 4728.621168    94.65361 
 4729.916809    111.1254 
 4731.212468    74.30403 
 4732.508142     64.1585 
 4733.803834    77.99825 
 4735.099542    73.65864 
 4736.395267     89.7611 
 4737.691009    75.73878 
 4738.986767    56.81049 
 4740.282542    91.99226 
 4741.578333    74.77703 
 4742.874142    64.24206 
 4744.169967    109.8491 
 4745.465809    101.7335 
 4746.761667    79.40158 
 4748.057542    85.53081 
 4749.353434    119.8993 
 4750.649342    99.81683 
 4751.945267    78.99728 
 4753.241209     91.2562 
 4754.537167    71.94814 
 4755.833142    81.87547 
 4757.129134    67.83282 
 4758.425143    94.37163 
 4759.721168    70.02124 
 4761.017209    77.20061 
 4762.313268    80.74961 
 4763.609343    70.67446 
 4764.905435    93.79103 
 4766.201543    85.76363 
 4767.497668    85.46882 
  4768.79381    111.6273 
 4770.089968    91.27279 
 4771.386143    54.03712 
 4772.682335    85.31055 
 4773.978543    68.68765 
 4775.274768    91.09085 
  4776.57101    77.54066 
 4777.867268    85.26864 
 4779.163543    78.55179 
 4780.459834    102.8883 
 4781.756143    103.6576 
 4783.052467    108.1474 
 4784.348809    82.47049 
 4785.645167    95.31451 
 4786.941542     95.3059 
 4788.237933    79.80122 
 4789.534341     78.1305 
 4790.830766    75.10938 
 4792.127207    61.85858 
 4793.423665    70.04585 
 4794.720139    76.28989 
  4796.01663    97.23865 
 4797.313138    100.7392 
