# STATUS =
# OBJECT = 2018gkz
# TELESCOPE = P200
# INSTRUMENT = SEDM
# DATE-OBS = 2018-10-06 00:00:00.000
# MJD = 58397.0
# EXPTIME =
# AIRMASS =
# SLIT =
# DISPERSER =
# SOURCE = DOI 10.3847/1538-4357/aca161
# FILTER =
# RESOLUTION =
# FLUX_STANDARD =
# EXTINCTION_CORRECTED =
# PHOTOMETRY_CALIBRATED =
# TELLURIC_CORRECTED =
# FLUX_UNITS =
# WAVE_UNITS =
# QUALITY =
# MIN_WAVE = 3500.937
# MAX_WAVE = 9999.404
# COMMENT =
 Wavelength        Flux 
   3502.002   1.332e-16 
   3503.066   2.934e-17 
   3504.131   2.636e-17 
   3505.195   4.864e-17 
    3506.26   4.424e-17 
   3507.324   4.355e-17 
   3508.389   9.741e-17 
   3509.454   7.752e-17 
   3510.519   1.168e-16 
   3511.584   4.768e-17 
   3512.648   2.088e-17 
   3513.713   2.092e-17 
   3514.778   2.485e-17 
   3515.843    7.54e-17 
   3516.909   2.692e-17 
   3517.974   8.151e-17 
   3519.039   1.163e-17 
   3520.104   8.171e-20 
   3521.169  -3.401e-17 
   3522.235   3.278e-17 
     3523.3   4.641e-17 
   3524.365   3.914e-17 
   3525.431   5.361e-17 
   3526.496   5.421e-17 
   3527.562   6.507e-17 
   3528.628   8.185e-17 
   3529.693   7.675e-17 
   3530.759    5.91e-17 
   3531.825   6.613e-17 
    3532.89   4.424e-17 
   3533.956   4.086e-18 
   3535.022   4.335e-17 
   3536.088   6.557e-17 
   3537.154   6.288e-17 
    3538.22   4.136e-17 
   3539.286   5.759e-17 
   3540.352   6.705e-17 
   3541.418   1.875e-17 
   3542.485    2.72e-17 
   3543.551   -5.32e-20 
   3544.617   8.229e-17 
   3545.684   6.941e-17 
    3546.75   5.291e-17 
   3547.816   4.423e-17 
   3548.883   4.473e-17 
   3549.949   9.843e-18 
   3551.016   2.695e-17 
   3552.083   4.554e-17 
   3553.149    9.71e-17 
   3554.216   6.468e-17 
   3555.283   2.697e-17 
    3556.35   5.746e-17 
   3557.416   3.917e-17 
   3558.483   9.412e-17 
    3559.55   4.834e-17 
   3560.617   7.992e-17 
   3561.684   9.125e-17 
   3562.751   2.633e-17 
   3563.818   4.603e-17 
   3564.886   6.226e-17 
   3565.953   6.474e-17 
    3567.02    7.39e-17 
   3568.087   1.277e-16 
   3569.155   8.859e-17 
   3570.222   9.044e-17 
    3571.29   6.066e-17 
   3572.357    8.27e-17 
   3573.425   5.987e-17 
   3574.492   4.318e-17 
    3575.56   6.145e-17 
   3576.627   9.648e-17 
   3577.695   6.508e-17 
   3578.763   1.058e-16 
   3579.831   8.739e-17 
   3580.898   8.017e-17 
   3581.966    7.92e-17 
   3583.034   2.518e-17 
   3584.102   2.529e-17 
    3585.17   7.814e-17 
   3586.238   6.746e-17 
   3587.306   4.175e-17 
   3588.375   8.761e-17 
   3589.443   6.772e-17 
   3590.511   6.894e-17 
   3591.579   8.547e-17 
   3592.648   7.055e-17 
   3593.716   1.016e-16 
   3594.784   5.892e-17 
   3595.853   1.041e-16 
   3596.921   6.741e-17 
    3597.99   6.574e-17 
   3599.058   1.138e-16 
   3600.127   5.359e-17 
   3601.196   4.945e-17 
   3602.264   8.103e-17 
   3603.333    5.72e-17 
   3604.402   9.083e-17 
   3605.471   1.188e-16 
    3606.54   1.119e-16 
   3607.609   7.062e-17 
   3608.678   7.783e-17 
   3609.747   7.648e-17 
   3610.816   8.441e-17 
   3611.885   8.061e-17 
   3612.954   7.598e-17 
   3614.023   8.219e-17 
   3615.092   1.062e-16 
   3616.162   9.262e-17 
   3617.231   8.638e-17 
     3618.3   1.356e-16 
    3619.37   7.993e-17 
   3620.439   6.129e-17 
   3621.509   1.317e-16 
   3622.578   1.059e-16 
   3623.648   3.817e-17 
   3624.717   5.727e-17 
   3625.787   1.079e-16 
   3626.857   5.975e-17 
   3627.927   1.046e-16 
   3628.996   8.559e-17 
   3630.066   1.139e-16 
   3631.136   6.156e-17 
   3632.206   1.085e-16 
   3633.276   7.422e-17 
   3634.346    1.05e-16 
   3635.416   9.836e-17 
   3636.486   5.376e-17 
   3637.556   9.835e-17 
   3638.626   6.378e-17 
   3639.697   7.254e-17 
   3640.767     7.7e-17 
   3641.837    1.15e-16 
   3642.907   9.225e-17 
   3643.978   9.738e-17 
   3645.048   1.011e-16 
   3646.119   1.362e-16 
   3647.189   5.131e-17 
    3648.26   9.906e-17 
    3649.33   9.164e-17 
   3650.401   6.487e-17 
   3651.472   1.148e-16 
   3652.542   3.635e-17 
   3653.613   4.884e-17 
   3654.684   2.953e-17 
   3655.755   6.793e-17 
   3656.826    5.13e-17 
   3657.897   7.041e-17 
   3658.967   7.566e-17 
   3660.038   1.114e-16 
    3661.11   8.477e-17 
   3662.181   5.392e-17 
   3663.252   8.234e-17 
   3664.323   5.722e-17 
   3665.394   1.184e-16 
   3666.465   8.993e-17 
   3667.537   7.252e-17 
   3668.608   1.018e-16 
   3669.679   8.298e-17 
   3670.751   7.463e-17 
   3671.822   6.691e-17 
   3672.894   1.058e-16 
   3673.965   1.233e-16 
   3675.037   7.994e-17 
   3676.108   1.091e-16 
    3677.18   1.082e-16 
   3678.252   1.414e-16 
   3679.324   9.402e-17 
   3680.395   1.085e-16 
   3681.467   8.556e-17 
   3682.539   6.807e-17 
   3683.611   1.034e-16 
   3684.683   9.688e-17 
   3685.755   6.266e-17 
   3686.827   9.017e-17 
   3687.899   7.158e-17 
   3688.971    9.97e-17 
   3690.043   6.824e-17 
   3691.115   9.483e-17 
   3692.187    9.57e-17 
    3693.26   6.824e-17 
   3694.332   9.237e-17 
   3695.404   9.938e-17 
   3696.477   6.131e-17 
   3697.549    7.59e-17 
   3698.622   5.388e-17 
   3699.694   5.818e-17 
   3700.767   7.474e-17 
   3701.839   8.493e-17 
   3702.912   8.579e-17 
   3703.984   8.152e-17 
   3705.057   6.778e-17 
    3706.13   7.166e-17 
   3707.203   9.902e-17 
   3708.275   9.687e-17 
   3709.348   7.743e-17 
   3710.421   9.332e-17 
   3711.494   1.093e-16 
   3712.567   7.493e-17 
    3713.64   9.989e-17 
   3714.713   9.084e-17 
   3715.786   6.195e-17 
   3716.859   8.925e-17 
   3717.932   1.036e-16 
   3719.006   6.703e-17 
   3720.079   6.996e-17 
   3721.152   8.126e-17 
   3722.225   8.475e-17 
   3723.299    7.92e-17 
   3724.372    7.87e-17 
   3725.446   4.538e-17 
   3726.519   7.159e-17 
   3727.593   6.181e-17 
   3728.666   7.407e-17 
    3729.74    6.41e-17 
   3730.813   9.991e-17 
   3731.887    4.85e-17 
   3732.961   6.378e-17 
   3734.034   4.026e-17 
   3735.108   1.059e-16 
   3736.182   9.379e-17 
   3737.256   7.796e-17 
    3738.33   8.381e-17 
   3739.404   8.103e-17 
   3740.478   1.931e-17 
   3741.552   7.492e-17 
   3742.626   6.047e-17 
     3743.7   8.002e-17 
   3744.774   7.223e-17 
   3745.848   6.676e-17 
   3746.922   2.564e-17 
   3747.996   5.967e-17 
   3749.071   5.261e-17 
   3750.145   5.244e-17 
   3751.219   3.447e-17 
   3752.294   3.889e-17 
   3753.368     9.3e-17 
   3754.442    5.44e-17 
   3755.517   4.611e-17 
   3756.591   2.452e-17 
   3757.666   8.833e-17 
   3758.741   8.875e-17 
   3759.815   6.262e-17 
    3760.89    6.11e-17 
   3761.965   5.178e-17 
   3763.039   5.592e-17 
   3764.114   5.056e-17 
   3765.189   7.031e-17 
   3766.264    7.75e-17 
   3767.339   6.101e-17 
   3768.414   5.127e-17 
   3769.489   5.134e-17 
   3770.564   6.178e-17 
   3771.639   9.208e-18 
   3772.714   4.041e-17 
   3773.789   6.991e-17 
   3774.864    7.58e-17 
   3775.939   5.962e-17 
   3777.014   6.632e-17 
    3778.09   5.089e-17 
   3779.165   2.643e-17 
    3780.24   3.495e-17 
   3781.316   4.798e-17 
   3782.391   6.636e-17 
   3783.466   2.298e-17 
   3784.542   1.467e-17 
   3785.617   5.619e-17 
   3786.693   4.809e-17 
   3787.769   2.642e-17 
   3788.844   2.087e-17 
    3789.92   4.216e-17 
   3790.995   4.851e-17 
   3792.071   6.707e-17 
   3793.147   5.583e-17 
   3794.223   5.026e-17 
   3795.299   5.961e-17 
   3796.374   7.294e-17 
    3797.45   4.628e-17 
   3798.526   5.838e-17 
   3799.602   3.879e-17 
   3800.678   6.582e-17 
   3801.754   7.241e-17 
    3802.83   5.194e-17 
   3803.906   3.708e-17 
   3804.983    3.13e-17 
   3806.059   2.834e-17 
   3807.135   6.417e-17 
   3808.211   5.927e-17 
   3809.288   3.973e-17 
   3810.364   4.097e-17 
    3811.44   4.427e-17 
   3812.517   5.261e-17 
   3813.593   5.285e-17 
   3814.669   6.017e-17 
   3815.746   4.583e-17 
   3816.822   4.279e-17 
   3817.899   2.109e-17 
   3818.976   6.715e-17 
   3820.052   5.882e-17 
   3821.129    6.19e-17 
   3822.206   6.564e-17 
   3823.282   6.054e-17 
   3824.359   6.393e-17 
   3825.436   6.197e-17 
   3826.513   8.012e-17 
    3827.59   6.619e-17 
   3828.667   3.996e-17 
   3829.743   6.522e-17 
    3830.82    6.98e-17 
   3831.897   6.237e-17 
   3832.974   6.569e-17 
   3834.052    6.94e-17 
   3835.129   6.267e-17 
   3836.206   5.922e-17 
   3837.283   5.355e-17 
    3838.36   6.392e-17 
   3839.437   6.897e-17 
   3840.515   4.083e-17 
   3841.592   7.714e-17 
   3842.669   5.025e-17 
   3843.747   4.821e-17 
   3844.824   7.029e-17 
   3845.902   6.383e-17 
   3846.979    5.27e-17 
   3848.057   9.704e-17 
   3849.134    7.99e-17 
   3850.212   5.937e-17 
   3851.289   4.178e-17 
   3852.367   8.105e-17 
   3853.445    8.09e-17 
   3854.522   8.545e-17 
     3855.6   7.368e-17 
   3856.678   5.721e-17 
   3857.756   1.109e-16 
   3858.834   6.025e-17 
   3859.911   4.386e-17 
   3860.989   5.523e-17 
   3862.067   4.694e-17 
   3863.145   6.881e-17 
   3864.223    4.11e-17 
   3865.301    6.25e-17 
   3866.379   5.823e-17 
   3867.457   6.157e-17 
   3868.536   8.123e-17 
   3869.614   9.202e-17 
   3870.692   6.647e-17 
    3871.77   3.399e-17 
   3872.848   8.205e-17 
   3873.927   7.093e-17 
   3875.005   9.069e-17 
   3876.083   8.113e-17 
   3877.162   7.399e-17 
    3878.24   5.838e-17 
   3879.319   7.505e-17 
   3880.397   5.991e-17 
   3881.476   7.359e-17 
   3882.554   7.774e-17 
   3883.633   8.271e-17 
   3884.711   5.819e-17 
    3885.79   7.559e-17 
   3886.869   6.651e-17 
   3887.947   6.485e-17 
   3889.026   6.445e-17 
   3890.105    7.35e-17 
   3891.184   7.392e-17 
   3892.263   6.641e-17 
   3893.342    6.23e-17 
    3894.42   8.637e-17 
   3895.499    9.31e-17 
   3896.578   9.614e-17 
   3897.657   9.441e-17 
   3898.736   7.012e-17 
   3899.815   7.219e-17 
   3900.894   7.142e-17 
   3901.974   5.426e-17 
   3903.053   8.542e-17 
   3904.132   5.711e-17 
   3905.211   8.576e-17 
    3906.29   7.418e-17 
    3907.37   6.036e-17 
   3908.449   8.507e-17 
   3909.528   6.048e-17 
   3910.608   4.533e-17 
   3911.687   6.172e-17 
   3912.766   7.387e-17 
   3913.846   7.919e-17 
   3914.925   5.231e-17 
   3916.005   4.743e-17 
   3917.084   4.742e-17 
   3918.164    5.98e-17 
   3919.244   7.589e-17 
   3920.323   7.091e-17 
   3921.403   8.453e-17 
   3922.483   7.293e-17 
   3923.562   5.229e-17 
   3924.642   4.175e-17 
   3925.722   8.515e-17 
   3926.802   5.449e-17 
   3927.882   7.045e-17 
   3928.962   7.112e-17 
   3930.041   4.582e-17 
   3931.121   6.163e-17 
   3932.201   6.343e-17 
   3933.281    5.59e-17 
   3934.361   7.216e-17 
   3935.441   5.966e-17 
   3936.522   7.406e-17 
   3937.602   6.292e-17 
   3938.682   5.803e-17 
   3939.762   9.294e-17 
   3940.842   6.672e-17 
   3941.922   8.477e-17 
   3943.003   7.835e-17 
   3944.083   7.037e-17 
   3945.163   6.552e-17 
   3946.244   4.253e-17 
   3947.324    3.55e-17 
   3948.404   6.701e-17 
   3949.485   5.857e-17 
   3950.565   7.909e-17 
   3951.646   5.689e-17 
   3952.726   7.474e-17 
   3953.807   6.774e-17 
   3954.887   6.652e-17 
   3955.968   7.898e-17 
   3957.049   8.772e-17 
   3958.129   7.434e-17 
    3959.21   6.537e-17 
   3960.291   8.403e-17 
   3961.372   7.669e-17 
   3962.452   6.917e-17 
   3963.533   5.064e-17 
   3964.614   7.926e-17 
   3965.695   7.827e-17 
   3966.776   5.717e-17 
   3967.857   6.165e-17 
   3968.938   7.103e-17 
   3970.019   5.504e-17 
     3971.1   4.194e-17 
   3972.181   6.404e-17 
   3973.262   6.883e-17 
   3974.343   6.519e-17 
   3975.424   7.053e-17 
   3976.505   6.106e-17 
   3977.586   5.382e-17 
   3978.668   6.989e-17 
   3979.749   5.672e-17 
    3980.83   7.163e-17 
   3981.911   5.343e-17 
   3982.993   4.529e-17 
   3984.074    6.06e-17 
   3985.155   8.478e-17 
   3986.237   7.701e-17 
   3987.318   4.702e-17 
     3988.4   6.303e-17 
   3989.481   7.419e-17 
   3990.563   5.516e-17 
   3991.644   5.974e-17 
   3992.726   7.465e-17 
   3993.807    5.84e-17 
   3994.889   8.064e-17 
   3995.971   7.385e-17 
   3997.052   5.093e-17 
   3998.134   6.119e-17 
   3999.216   5.344e-17 
   4000.298   5.489e-17 
   4001.379   6.869e-17 
   4002.461   9.137e-17 
   4003.543   7.705e-17 
   4004.625    6.21e-17 
   4005.707   6.199e-17 
   4006.789   4.946e-17 
   4007.871   6.192e-17 
   4008.953   8.091e-17 
   4010.035   8.724e-17 
   4011.117   6.871e-17 
   4012.199   4.259e-17 
   4013.281   8.469e-17 
   4014.363   7.557e-17 
   4015.445   5.602e-17 
   4016.527   7.697e-17 
   4017.609   9.062e-17 
   4018.691   6.627e-17 
   4019.774   8.266e-17 
   4020.856   8.381e-17 
   4021.938   7.554e-17 
   4023.021    6.98e-17 
   4024.103   8.538e-17 
   4025.185    7.96e-17 
   4026.268   7.133e-17 
    4027.35   9.089e-17 
   4028.432   7.058e-17 
   4029.515   4.305e-17 
   4030.597   8.863e-17 
    4031.68   5.399e-17 
   4032.763   6.459e-17 
   4033.845   7.817e-17 
   4034.928   6.824e-17 
    4036.01   8.705e-17 
   4037.093   4.883e-17 
   4038.176   5.906e-17 
   4039.258   6.799e-17 
   4040.341   5.604e-17 
   4041.424   7.181e-17 
   4042.507   8.649e-17 
   4043.589    6.16e-17 
   4044.672    7.52e-17 
   4045.755   6.124e-17 
   4046.838   5.505e-17 
   4047.921   8.723e-17 
   4049.004   6.865e-17 
   4050.087    4.32e-17 
    4051.17   7.642e-17 
   4052.253    7.84e-17 
   4053.336   7.367e-17 
   4054.419   7.879e-17 
   4055.502   6.211e-17 
   4056.585    7.98e-17 
   4057.668   6.916e-17 
   4058.751     1.1e-16 
   4059.834   7.903e-17 
   4060.918   5.793e-17 
   4062.001   6.106e-17 
   4063.084   5.571e-17 
   4064.167   5.786e-17 
   4065.251   6.486e-17 
   4066.334   6.943e-17 
   4067.417   8.033e-17 
   4068.501   7.848e-17 
   4069.584   5.743e-17 
   4070.667   5.195e-17 
   4071.751   7.943e-17 
   4072.834    5.51e-17 
   4073.918   6.951e-17 
   4075.001   7.164e-17 
   4076.085   7.739e-17 
   4077.168   8.224e-17 
   4078.252   5.995e-17 
   4079.336    6.68e-17 
   4080.419   6.661e-17 
   4081.503   6.365e-17 
   4082.586   7.234e-17 
    4083.67   3.554e-17 
   4084.754   6.974e-17 
   4085.838   8.168e-17 
   4086.921   5.711e-17 
   4088.005   5.493e-17 
   4089.089   7.784e-17 
   4090.173   7.695e-17 
   4091.257   6.139e-17 
   4092.341   8.467e-17 
   4093.425   5.472e-17 
   4094.508   9.037e-17 
   4095.592   7.037e-17 
   4096.676   6.995e-17 
    4097.76   5.672e-17 
   4098.844   9.308e-17 
   4099.928   7.559e-17 
   4101.013   6.335e-17 
   4102.097   8.163e-17 
   4103.181   6.516e-17 
   4104.265    7.88e-17 
   4105.349   6.776e-17 
   4106.433   6.091e-17 
   4107.517   7.421e-17 
   4108.602   9.019e-17 
   4109.686   4.264e-17 
    4110.77    8.82e-17 
   4111.854   8.463e-17 
   4112.939   7.251e-17 
   4114.023   7.171e-17 
   4115.107   6.589e-17 
   4116.192   7.142e-17 
   4117.276   9.812e-17 
   4118.361   7.891e-17 
   4119.445   6.476e-17 
    4120.53   7.598e-17 
   4121.614   7.766e-17 
   4122.699   8.464e-17 
   4123.783    8.18e-17 
   4124.868   8.496e-17 
   4125.952   7.554e-17 
   4127.037   8.292e-17 
   4128.122   8.792e-17 
   4129.206   7.401e-17 
   4130.291   7.935e-17 
   4131.376   5.964e-17 
    4132.46     6.2e-17 
   4133.545   8.931e-17 
    4134.63   7.339e-17 
   4135.714   5.543e-17 
   4136.799   6.505e-17 
   4137.884   8.843e-17 
   4138.969   4.194e-17 
   4140.054   6.564e-17 
   4141.139   6.928e-17 
   4142.224    5.89e-17 
   4143.308   6.617e-17 
   4144.393   7.075e-17 
   4145.478   6.785e-17 
   4146.563   7.112e-17 
   4147.648   6.603e-17 
   4148.733   8.289e-17 
   4149.818   5.735e-17 
   4150.904     7.8e-17 
   4151.989   5.976e-17 
   4153.074   7.147e-17 
   4154.159   8.281e-17 
   4155.244   9.458e-17 
   4156.329   6.172e-17 
   4157.414   8.162e-17 
     4158.5   9.657e-17 
   4159.585   9.396e-17 
    4160.67   7.127e-17 
   4161.755   7.513e-17 
   4162.841   4.993e-17 
   4163.926    8.65e-17 
   4165.011   6.823e-17 
   4166.097   7.958e-17 
   4167.182   8.176e-17 
   4168.267   6.183e-17 
   4169.353   9.048e-17 
   4170.438   6.742e-17 
   4171.524    4.55e-17 
   4172.609   7.862e-17 
   4173.695   6.186e-17 
    4174.78   6.839e-17 
   4175.866   6.733e-17 
   4176.951   7.506e-17 
   4178.037   8.371e-17 
   4179.122   7.793e-17 
   4180.208   5.697e-17 
   4181.294   7.643e-17 
   4182.379   7.259e-17 
   4183.465   7.831e-17 
   4184.551    7.73e-17 
   4185.636   5.263e-17 
   4186.722   6.133e-17 
   4187.808   6.917e-17 
   4188.894   6.421e-17 
   4189.979   6.369e-17 
   4191.065   7.146e-17 
   4192.151   7.818e-17 
   4193.237   7.778e-17 
   4194.323   8.244e-17 
   4195.409    6.07e-17 
   4196.495   8.918e-17 
    4197.58   5.424e-17 
   4198.666   4.161e-17 
   4199.752   7.348e-17 
   4200.838   7.371e-17 
   4201.924   8.113e-17 
    4203.01   5.434e-17 
   4204.096   8.346e-17 
   4205.182    7.37e-17 
   4206.268   8.782e-17 
   4207.355   6.645e-17 
   4208.441   8.369e-17 
   4209.527   6.708e-17 
   4210.613   6.606e-17 
   4211.699   7.607e-17 
   4212.785   6.404e-17 
   4213.871   9.463e-17 
   4214.958   6.074e-17 
   4216.044    5.89e-17 
    4217.13   5.622e-17 
   4218.216   8.886e-17 
   4219.303   5.377e-17 
   4220.389   9.186e-17 
   4221.475   4.618e-17 
   4222.562   6.582e-17 
   4223.648   5.725e-17 
   4224.734   8.773e-17 
   4225.821   8.142e-17 
   4226.907   7.285e-17 
   4227.994   6.231e-17 
    4229.08   7.866e-17 
   4230.167   6.982e-17 
   4231.253   6.842e-17 
    4232.34   7.067e-17 
   4233.426   1.022e-16 
   4234.513   1.008e-16 
   4235.599   6.046e-17 
   4236.686   6.744e-17 
   4237.772   7.911e-17 
   4238.859    5.09e-17 
   4239.945   6.295e-17 
   4241.032   5.622e-17 
   4242.119   5.826e-17 
   4243.205   8.289e-17 
   4244.292   8.565e-17 
   4245.379   7.928e-17 
   4246.466   7.285e-17 
   4247.552     7.4e-17 
   4248.639   9.874e-17 
   4249.726    6.15e-17 
   4250.813   7.408e-17 
   4251.899   9.008e-17 
   4252.986   6.389e-17 
   4254.073     7.5e-17 
    4255.16   7.905e-17 
   4256.247   8.753e-17 
   4257.334   6.555e-17 
   4258.421   7.465e-17 
   4259.507   7.442e-17 
   4260.594   9.151e-17 
   4261.681    7.11e-17 
   4262.768   6.884e-17 
   4263.855   8.189e-17 
   4264.942   8.548e-17 
   4266.029   8.354e-17 
   4267.116   8.689e-17 
   4268.203    8.17e-17 
    4269.29   3.977e-17 
   4270.377   6.262e-17 
   4271.465   7.166e-17 
   4272.552   7.945e-17 
   4273.639   5.626e-17 
   4274.726   9.319e-17 
   4275.813   5.442e-17 
     4276.9   8.068e-17 
   4277.987   8.428e-17 
   4279.075   7.108e-17 
   4280.162    7.22e-17 
   4281.249   8.012e-17 
   4282.336    6.63e-17 
   4283.424   6.909e-17 
   4284.511   8.422e-17 
   4285.598   6.929e-17 
   4286.685   6.766e-17 
   4287.773   9.537e-17 
    4288.86   7.801e-17 
   4289.947   7.668e-17 
   4291.035   1.232e-16 
   4292.122   9.014e-17 
    4293.21   7.898e-17 
   4294.297    1.03e-16 
   4295.384   9.576e-17 
   4296.472   8.153e-17 
   4297.559   9.287e-17 
   4298.647   8.236e-17 
   4299.734   8.784e-17 
   4300.822   9.749e-17 
   4301.909   9.865e-17 
   4302.997   8.089e-17 
   4304.084   8.432e-17 
   4305.172   9.038e-17 
    4306.26   6.239e-17 
   4307.347   1.112e-16 
   4308.435   9.508e-17 
   4309.522   7.687e-17 
    4310.61   6.942e-17 
   4311.698   6.827e-17 
   4312.785   1.108e-16 
   4313.873   8.908e-17 
   4314.961   9.826e-17 
   4316.048   1.034e-16 
   4317.136   9.404e-17 
   4318.224   1.097e-16 
   4319.312   9.318e-17 
   4320.399   1.025e-16 
   4321.487   9.447e-17 
   4322.575    7.46e-17 
   4323.663   9.846e-17 
    4324.75   1.003e-16 
   4325.838    7.33e-17 
   4326.926   9.962e-17 
   4328.014    8.73e-17 
   4329.102   6.933e-17 
    4330.19   8.039e-17 
   4331.278   8.343e-17 
   4332.365   1.043e-16 
   4333.453   1.037e-16 
   4334.541   7.424e-17 
   4335.629   8.373e-17 
   4336.717   9.058e-17 
   4337.805   8.076e-17 
   4338.893   8.861e-17 
   4339.981   7.641e-17 
   4341.069   1.079e-16 
   4342.157   8.559e-17 
   4343.245   9.839e-17 
   4344.333    8.84e-17 
