# STATUS =
# OBJECT = 2018hti
# TELESCOPE = WHT
# INSTRUMENT = ISIS
# DATE-OBS = 2018-12-31 00:00:00.000
# MJD = 58483.0
# EXPTIME =
# AIRMASS =
# SLIT =
# DISPERSER =
# SOURCE = DOI 10.3847/1538-4357/aca161
# FILTER =
# RESOLUTION =
# FLUX_STANDARD =
# EXTINCTION_CORRECTED =
# PHOTOMETRY_CALIBRATED =
# TELLURIC_CORRECTED =
# FLUX_UNITS =
# WAVE_UNITS =
# QUALITY =
# MIN_WAVE = 3400.0
# MAX_WAVE = 8400.0
# COMMENT =
 Wavelength        Flux 
     3402.0  4.3011e-15 
     3404.0  4.2491e-15 
     3406.0  5.2177e-15 
     3408.0  4.4708e-15 
     3410.0  4.7332e-15 
     3412.0  4.2497e-15 
     3414.0  4.5011e-15 
     3416.0   4.717e-15 
     3418.0  4.8016e-15 
     3420.0  4.3844e-15 
     3422.0  4.1366e-15 
     3424.0  4.8067e-15 
     3426.0  4.0664e-15 
     3428.0  4.8008e-15 
     3430.0  4.1777e-15 
     3432.0  4.3132e-15 
     3434.0  4.0645e-15 
     3436.0  4.3264e-15 
     3438.0  3.9676e-15 
     3440.0  4.4791e-15 
     3442.0  4.1073e-15 
     3444.0  4.3001e-15 
     3446.0  4.2194e-15 
     3448.0  4.3626e-15 
     3450.0  3.9569e-15 
     3452.0  4.2403e-15 
     3454.0  4.0426e-15 
     3456.0  4.1318e-15 
     3458.0  4.5103e-15 
     3460.0  4.3809e-15 
     3462.0  4.4398e-15 
     3464.0   4.173e-15 
     3466.0  4.3944e-15 
     3468.0  4.2289e-15 
     3470.0  4.6884e-15 
     3472.0  4.6358e-15 
     3474.0  4.3909e-15 
     3476.0  4.8732e-15 
     3478.0  4.7405e-15 
     3480.0  4.5279e-15 
     3482.0  4.5043e-15 
     3484.0  4.3605e-15 
     3486.0  4.2691e-15 
     3488.0  4.3254e-15 
     3490.0  4.3551e-15 
     3492.0  4.1478e-15 
     3494.0  4.3024e-15 
     3496.0  4.3315e-15 
     3498.0  4.9419e-15 
     3500.0  4.2859e-15 
     3502.0  4.2785e-15 
     3504.0  3.8177e-15 
     3506.0  3.9823e-15 
     3508.0   4.466e-15 
     3510.0  4.0635e-15 
     3512.0  4.2009e-15 
     3514.0   4.293e-15 
     3516.0  4.0859e-15 
     3518.0  4.4258e-15 
     3520.0  4.3372e-15 
     3522.0  4.4246e-15 
     3524.0  4.2166e-15 
     3526.0  4.2979e-15 
     3528.0  4.2872e-15 
     3530.0  3.8513e-15 
     3532.0  4.4621e-15 
     3534.0  4.5098e-15 
     3536.0  4.4819e-15 
     3538.0  4.1619e-15 
     3540.0  4.2509e-15 
     3542.0  4.2855e-15 
     3544.0  4.7601e-15 
     3546.0  4.1077e-15 
     3548.0  4.3691e-15 
     3550.0  4.2546e-15 
     3552.0  4.1636e-15 
     3554.0  4.4709e-15 
     3556.0  4.8621e-15 
     3558.0  4.3206e-15 
     3560.0  4.3287e-15 
     3562.0  4.1767e-15 
     3564.0   3.865e-15 
     3566.0   4.228e-15 
     3568.0  4.0663e-15 
     3570.0   4.232e-15 
     3572.0  4.4904e-15 
     3574.0   4.615e-15 
     3576.0  4.3916e-15 
     3578.0  4.1846e-15 
     3580.0  4.6086e-15 
     3582.0  4.1003e-15 
     3584.0  4.2033e-15 
     3586.0  4.6271e-15 
     3588.0  4.4736e-15 
     3590.0  4.2512e-15 
     3592.0  4.4557e-15 
     3594.0  4.4972e-15 
     3596.0   4.321e-15 
     3598.0  4.6696e-15 
     3600.0  4.5855e-15 
     3602.0  4.4803e-15 
     3604.0  4.0718e-15 
     3606.0  4.1259e-15 
     3608.0  4.1052e-15 
     3610.0  4.8028e-15 
     3612.0   4.434e-15 
     3614.0  4.4487e-15 
     3616.0  4.0334e-15 
     3618.0   3.748e-15 
     3620.0   4.319e-15 
     3622.0  4.3783e-15 
     3624.0  4.2075e-15 
     3626.0  3.9769e-15 
     3628.0  4.5853e-15 
     3630.0  4.7183e-15 
     3632.0  4.0445e-15 
     3634.0   4.434e-15 
     3636.0  4.7582e-15 
     3638.0  4.5097e-15 
     3640.0  4.6039e-15 
     3642.0  4.2075e-15 
     3644.0  4.1152e-15 
     3646.0   4.409e-15 
     3648.0  4.7877e-15 
     3650.0  4.5151e-15 
     3652.0   4.451e-15 
     3654.0   4.348e-15 
     3656.0  4.2089e-15 
     3658.0  4.3656e-15 
     3660.0  4.4975e-15 
     3662.0  4.1994e-15 
     3664.0  3.9824e-15 
     3666.0  4.2787e-15 
     3668.0  4.2682e-15 
     3670.0  4.3784e-15 
     3672.0  4.2736e-15 
     3674.0  4.1032e-15 
     3676.0  3.8293e-15 
     3678.0  4.6356e-15 
     3680.0  4.6003e-15 
     3682.0   4.597e-15 
     3684.0  4.6864e-15 
     3686.0  4.6814e-15 
     3688.0  4.2627e-15 
     3690.0  4.6225e-15 
     3692.0  4.5547e-15 
     3694.0  4.3863e-15 
     3696.0  4.2804e-15 
     3698.0  4.4865e-15 
     3700.0  4.2301e-15 
     3702.0  4.4261e-15 
     3704.0  4.0984e-15 
     3706.0  4.3213e-15 
     3708.0  4.5232e-15 
     3710.0  4.4056e-15 
     3712.0  4.3617e-15 
     3714.0  4.4571e-15 
     3716.0  4.0673e-15 
     3718.0  4.1693e-15 
     3720.0   4.011e-15 
     3722.0  3.7574e-15 
     3724.0  4.0755e-15 
     3726.0  4.5129e-15 
     3728.0  4.1525e-15 
     3730.0  4.1746e-15 
     3732.0  4.1884e-15 
     3734.0  4.3218e-15 
     3736.0  4.2723e-15 
     3738.0  4.3748e-15 
     3740.0  4.3189e-15 
     3742.0  4.2408e-15 
     3744.0    4.54e-15 
     3746.0  4.4857e-15 
     3748.0  4.2779e-15 
     3750.0  4.4902e-15 
     3752.0   4.203e-15 
     3754.0  4.6894e-15 
     3756.0  4.7284e-15 
     3758.0  4.2807e-15 
     3760.0  4.6088e-15 
     3762.0  4.3823e-15 
     3764.0  4.5398e-15 
     3766.0  4.7868e-15 
     3768.0  4.7025e-15 
     3770.0  4.5967e-15 
     3772.0  4.8536e-15 
     3774.0  4.5457e-15 
     3776.0  5.0074e-15 
     3778.0  4.6363e-15 
     3780.0  4.6642e-15 
     3782.0  5.1423e-15 
     3784.0  4.7875e-15 
     3786.0  4.7764e-15 
     3788.0  4.5574e-15 
     3790.0  4.5896e-15 
     3792.0  4.9093e-15 
     3794.0  4.5689e-15 
     3796.0  4.8114e-15 
     3798.0  4.7712e-15 
     3800.0  4.6818e-15 
     3802.0  4.7215e-15 
     3804.0  4.9848e-15 
     3806.0  4.7978e-15 
     3808.0  5.1453e-15 
     3810.0  4.9361e-15 
     3812.0  5.2015e-15 
     3814.0  4.6334e-15 
     3816.0  5.1975e-15 
     3818.0  4.9687e-15 
     3820.0  4.9238e-15 
     3822.0  5.0423e-15 
     3824.0  4.7892e-15 
     3826.0  4.9931e-15 
     3828.0   4.669e-15 
     3830.0  4.8031e-15 
     3832.0  4.8578e-15 
     3834.0   4.613e-15 
     3836.0  4.6639e-15 
     3838.0  4.6256e-15 
     3840.0  4.9238e-15 
     3842.0  4.9358e-15 
     3844.0  4.8143e-15 
     3846.0  4.7395e-15 
     3848.0  4.7782e-15 
     3850.0  4.6708e-15 
     3852.0   4.738e-15 
     3854.0  4.5513e-15 
     3856.0  4.6468e-15 
     3858.0   4.652e-15 
     3860.0  4.6996e-15 
     3862.0  4.3662e-15 
     3864.0  4.6171e-15 
     3866.0  4.4787e-15 
     3868.0  4.4277e-15 
     3870.0  4.6496e-15 
     3872.0  4.7535e-15 
     3874.0  4.2599e-15 
     3876.0   4.422e-15 
     3878.0  4.7104e-15 
     3880.0  4.6984e-15 
     3882.0  4.6736e-15 
     3884.0  4.7542e-15 
     3886.0  4.3932e-15 
     3888.0  4.4183e-15 
     3890.0  4.6087e-15 
     3892.0  4.5764e-15 
     3894.0  4.5038e-15 
     3896.0  4.4057e-15 
     3898.0  4.5114e-15 
     3900.0    4.52e-15 
     3902.0  4.6943e-15 
     3904.0  4.4863e-15 
     3906.0  4.4799e-15 
     3908.0  4.5034e-15 
     3910.0  4.4611e-15 
     3912.0  4.5266e-15 
     3914.0  4.5811e-15 
     3916.0   4.706e-15 
     3918.0   4.662e-15 
     3920.0   4.776e-15 
     3922.0  4.5935e-15 
     3924.0  4.9894e-15 
     3926.0  4.7313e-15 
     3928.0  4.8258e-15 
     3930.0  4.8957e-15 
     3932.0  4.5414e-15 
     3934.0  4.5326e-15 
     3936.0  4.4261e-15 
     3938.0   4.549e-15 
     3940.0  4.6738e-15 
     3942.0  4.6478e-15 
     3944.0  4.5914e-15 
     3946.0  4.6233e-15 
     3948.0  4.3742e-15 
     3950.0  4.5475e-15 
     3952.0  4.4513e-15 
     3954.0  4.5699e-15 
     3956.0  4.6817e-15 
     3958.0  4.8155e-15 
     3960.0  4.5982e-15 
     3962.0   4.444e-15 
     3964.0  4.1438e-15 
     3966.0  4.4292e-15 
     3968.0  4.4423e-15 
     3970.0  4.5027e-15 
     3972.0  4.2845e-15 
     3974.0  4.6458e-15 
     3976.0  4.3788e-15 
     3978.0  4.4753e-15 
     3980.0  4.3384e-15 
     3982.0  4.3499e-15 
     3984.0  4.3936e-15 
     3986.0  4.4793e-15 
     3988.0   4.485e-15 
     3990.0  4.4396e-15 
     3992.0  4.6598e-15 
     3994.0   4.499e-15 
     3996.0  4.5505e-15 
     3998.0  4.5561e-15 
     4000.0  4.6509e-15 
     4002.0   4.499e-15 
     4004.0  4.3561e-15 
     4006.0  4.6037e-15 
     4008.0  4.2751e-15 
     4010.0   4.398e-15 
     4012.0  4.6322e-15 
     4014.0  4.4035e-15 
     4016.0  4.6378e-15 
     4018.0  4.6665e-15 
     4020.0   4.325e-15 
     4022.0  4.5496e-15 
     4024.0   4.527e-15 
     4026.0   4.559e-15 
     4028.0  4.2721e-15 
     4030.0  4.2849e-15 
     4032.0  4.2124e-15 
     4034.0  4.1412e-15 
     4036.0  4.5266e-15 
     4038.0  4.3045e-15 
     4040.0  4.4423e-15 
     4042.0  4.5301e-15 
     4044.0  4.5018e-15 
     4046.0  4.3325e-15 
     4048.0  4.3555e-15 
     4050.0  4.2713e-15 
     4052.0  4.1435e-15 
     4054.0  4.1276e-15 
     4056.0  4.1403e-15 
     4058.0  4.0709e-15 
     4060.0  4.2033e-15 
     4062.0  4.2627e-15 
     4064.0  4.1951e-15 
     4066.0  3.9237e-15 
     4068.0  4.0922e-15 
     4070.0  4.5014e-15 
     4072.0  4.1817e-15 
     4074.0   3.981e-15 
     4076.0  4.1903e-15 
     4078.0  4.4341e-15 
     4080.0  4.3721e-15 
     4082.0  4.4234e-15 
     4084.0  4.5026e-15 
     4086.0  4.4579e-15 
     4088.0  4.4619e-15 
     4090.0  4.3242e-15 
     4092.0  4.2082e-15 
     4094.0  4.1919e-15 
     4096.0  4.1919e-15 
     4098.0  4.3641e-15 
     4100.0  4.4068e-15 
     4102.0   4.452e-15 
     4104.0  4.1545e-15 
     4106.0  4.4266e-15 
     4108.0  4.4052e-15 
     4110.0  4.2668e-15 
     4112.0  4.4184e-15 
     4114.0  4.2138e-15 
     4116.0  4.3192e-15 
     4118.0  4.3161e-15 
     4120.0  4.2392e-15 
     4122.0  4.3496e-15 
     4124.0  4.2738e-15 
     4126.0  4.4734e-15 
     4128.0  4.3198e-15 
     4130.0  4.2268e-15 
     4132.0  4.1946e-15 
     4134.0  4.4671e-15 
     4136.0  4.3907e-15 
     4138.0  4.2796e-15 
     4140.0  4.3599e-15 
     4142.0  4.5127e-15 
     4144.0  4.4332e-15 
     4146.0  4.5669e-15 
     4148.0  4.3372e-15 
     4150.0  4.6215e-15 
     4152.0  4.3935e-15 
     4154.0  4.4532e-15 
     4156.0  4.3373e-15 
     4158.0  4.3937e-15 
     4160.0  4.5523e-15 
     4162.0  4.5711e-15 
     4164.0  4.4888e-15 
     4166.0  4.5453e-15 
     4168.0  4.6113e-15 
     4170.0  4.6064e-15 
     4172.0  4.8225e-15 
     4174.0  4.5692e-15 
     4176.0  4.1664e-15 
     4178.0  4.4121e-15 
     4180.0  4.3927e-15 
     4182.0  4.6901e-15 
     4184.0  4.6598e-15 
     4186.0  4.5928e-15 
     4188.0  4.4238e-15 
     4190.0  4.5723e-15 
     4192.0  4.5673e-15 
     4194.0   4.379e-15 
     4196.0  4.6208e-15 
     4198.0  4.6695e-15 
     4200.0  4.6913e-15 
     4202.0  4.6399e-15 
     4204.0  4.4996e-15 
     4206.0  4.3693e-15 
     4208.0  4.4359e-15 
     4210.0  4.7135e-15 
     4212.0  4.6847e-15 
     4214.0  4.5522e-15 
     4216.0  4.6278e-15 
     4218.0  4.5149e-15 
     4220.0  4.2981e-15 
     4222.0  4.2103e-15 
     4224.0  4.1678e-15 
     4226.0  4.3753e-15 
     4228.0  4.5373e-15 
     4230.0  4.7529e-15 
     4232.0  4.2501e-15 
     4234.0   4.341e-15 
     4236.0  4.2389e-15 
     4238.0  4.3255e-15 
     4240.0  4.2989e-15 
     4242.0  4.1103e-15 
     4244.0  4.3123e-15 
     4246.0  4.1774e-15 
     4248.0  4.1495e-15 
     4250.0  4.2485e-15 
     4252.0   4.242e-15 
     4254.0  4.1572e-15 
     4256.0  4.2253e-15 
     4258.0  4.2644e-15 
     4260.0  4.2253e-15 
     4262.0  4.1633e-15 
     4264.0  4.2104e-15 
     4266.0  4.1159e-15 
     4268.0  4.1062e-15 
     4270.0  4.1323e-15 
     4272.0  4.3165e-15 
     4274.0   4.173e-15 
     4276.0  4.1461e-15 
     4278.0  4.2109e-15 
     4280.0  4.1855e-15 
     4282.0  4.3123e-15 
     4284.0  4.1848e-15 
     4286.0  4.2754e-15 
     4288.0  4.1977e-15 
     4290.0   4.239e-15 
     4292.0  4.3342e-15 
     4294.0  4.1317e-15 
     4296.0  4.0865e-15 
     4298.0  4.2764e-15 
     4300.0  4.0895e-15 
     4302.0  4.0499e-15 
     4304.0  4.4282e-15 
     4306.0   4.727e-15 
     4308.0    4.45e-15 
     4310.0  4.2024e-15 
     4312.0  4.3258e-15 
     4314.0  4.4262e-15 
     4316.0  4.3096e-15 
     4318.0  4.2677e-15 
     4320.0  4.3685e-15 
     4322.0  4.4542e-15 
     4324.0  4.5747e-15 
     4326.0  4.5498e-15 
     4328.0  4.4926e-15 
     4330.0  4.8203e-15 
     4332.0  4.6318e-15 
     4334.0  4.1992e-15 
     4336.0  4.4403e-15 
     4338.0  4.6909e-15 
     4340.0  4.6872e-15 
     4342.0  4.6487e-15 
     4344.0   4.609e-15 
     4346.0  4.5632e-15 
     4348.0  4.4324e-15 
     4350.0  4.5875e-15 
     4352.0  4.5075e-15 
     4354.0   4.528e-15 
     4356.0  4.3653e-15 
     4358.0  4.3236e-15 
     4360.0  4.6354e-15 
     4362.0  4.7075e-15 
     4364.0  4.5611e-15 
     4366.0   4.532e-15 
     4368.0  4.6351e-15 
     4370.0  4.4559e-15 
     4372.0  4.3189e-15 
     4374.0  4.3358e-15 
     4376.0  4.6515e-15 
     4378.0  4.7024e-15 
     4380.0  4.5339e-15 
     4382.0  4.5284e-15 
     4384.0  4.5542e-15 
     4386.0  4.4965e-15 
     4388.0  4.5605e-15 
     4390.0   4.496e-15 
     4392.0   4.484e-15 
     4394.0  4.5465e-15 
     4396.0  4.4193e-15 
     4398.0  4.4226e-15 
     4400.0  4.4896e-15 
     4402.0  4.3015e-15 
     4404.0  4.4353e-15 
     4406.0  4.3077e-15 
     4408.0  4.4076e-15 
     4410.0  4.2465e-15 
     4412.0  4.3744e-15 
     4414.0  4.2439e-15 
     4416.0  4.3363e-15 
     4418.0  4.3296e-15 
     4420.0  4.2601e-15 
     4422.0  4.1328e-15 
     4424.0  3.9271e-15 
     4426.0  3.9804e-15 
     4428.0  4.0751e-15 
     4430.0  3.9644e-15 
     4432.0  4.0264e-15 
     4434.0  4.0722e-15 
     4436.0  4.0593e-15 
     4438.0  4.1081e-15 
     4440.0  4.4749e-15 
     4442.0  4.4613e-15 
     4444.0  4.5242e-15 
     4446.0  4.2823e-15 
     4448.0  4.2127e-15 
     4450.0  4.5466e-15 
     4452.0  4.3884e-15 
     4454.0  4.2974e-15 
     4456.0  4.0627e-15 
     4458.0   4.348e-15 
     4460.0  4.3767e-15 
     4462.0  4.2987e-15 
     4464.0  4.3004e-15 
     4466.0  4.1911e-15 
     4468.0  4.3039e-15 
     4470.0  4.1867e-15 
     4472.0  4.2053e-15 
     4474.0  4.0199e-15 
     4476.0  4.0887e-15 
     4478.0  4.1335e-15 
     4480.0  4.0103e-15 
     4482.0  4.2708e-15 
     4484.0  4.0986e-15 
     4486.0  3.9986e-15 
     4488.0  4.0021e-15 
     4490.0  3.9343e-15 
     4492.0  4.0556e-15 
     4494.0  3.9268e-15 
     4496.0  3.9658e-15 
     4498.0  4.0768e-15 
     4500.0  3.9409e-15 
     4502.0  3.7986e-15 
     4504.0  3.7559e-15 
     4506.0  3.6482e-15 
     4508.0  3.7149e-15 
     4510.0  3.9168e-15 
     4512.0  4.0311e-15 
     4514.0  3.8214e-15 
     4516.0  4.0296e-15 
     4518.0   3.923e-15 
     4520.0  4.1523e-15 
     4522.0  3.9592e-15 
     4524.0  3.8838e-15 
     4526.0  3.9722e-15 
     4528.0  3.9855e-15 
     4530.0  3.9487e-15 
     4532.0  3.9627e-15 
     4534.0  4.0468e-15 
     4536.0  3.8891e-15 
     4538.0  4.1362e-15 
     4540.0  3.9483e-15 
     4542.0  3.7637e-15 
     4544.0  4.0214e-15 
     4546.0  3.9793e-15 
     4548.0  3.8229e-15 
     4550.0  4.2498e-15 
     4552.0  3.9915e-15 
     4554.0  3.9364e-15 
     4556.0  3.8167e-15 
     4558.0  3.9772e-15 
     4560.0  4.0331e-15 
     4562.0  3.8014e-15 
     4564.0   4.019e-15 
     4566.0  3.9996e-15 
     4568.0  4.1023e-15 
     4570.0  3.9398e-15 
     4572.0  3.9496e-15 
     4574.0  3.8812e-15 
     4576.0  3.8739e-15 
     4578.0  3.8679e-15 
     4580.0  3.8298e-15 
     4582.0  3.8228e-15 
     4584.0  3.7034e-15 
     4586.0  3.7904e-15 
     4588.0  3.8828e-15 
     4590.0  3.8378e-15 
     4592.0  3.6829e-15 
     4594.0  3.8832e-15 
     4596.0  3.6829e-15 
     4598.0  3.5138e-15 
     4600.0  3.6184e-15 
     4602.0  3.7804e-15 
     4604.0  3.7665e-15 
     4606.0  3.8739e-15 
     4608.0   3.819e-15 
     4610.0   3.912e-15 
     4612.0  3.7866e-15 
     4614.0  3.7794e-15 
     4616.0  3.7662e-15 
     4618.0   3.881e-15 
     4620.0  3.8416e-15 
     4622.0  3.8943e-15 
     4624.0  3.9307e-15 
     4626.0  4.0619e-15 
     4628.0  3.9648e-15 
     4630.0  3.9609e-15 
     4632.0   4.045e-15 
     4634.0  3.9566e-15 
     4636.0  3.8729e-15 
     4638.0  3.6018e-15 
     4640.0   3.888e-15 
     4642.0  4.0344e-15 
     4644.0  3.8695e-15 
     4646.0  3.9686e-15 
     4648.0  3.9843e-15 
     4650.0  4.1251e-15 
     4652.0  4.1327e-15 
     4654.0  4.1026e-15 
     4656.0  4.0412e-15 
     4658.0  4.0097e-15 
     4660.0  4.0833e-15 
     4662.0  3.9426e-15 
     4664.0  4.1778e-15 
     4666.0  4.1722e-15 
     4668.0  4.0191e-15 
     4670.0  4.1026e-15 
     4672.0  4.1307e-15 
     4674.0  4.2475e-15 
     4676.0  4.1294e-15 
     4678.0  4.1065e-15 
     4680.0  4.3601e-15 
     4682.0   4.258e-15 
     4684.0  4.0203e-15 
     4686.0  4.2715e-15 
     4688.0  4.1597e-15 
     4690.0  4.1487e-15 
     4692.0  4.1084e-15 
     4694.0  3.9961e-15 
     4696.0  4.2532e-15 
     4698.0  4.2969e-15 
     4700.0  4.1979e-15 
     4702.0  3.9991e-15 
     4704.0  4.3829e-15 
     4706.0  4.1905e-15 
     4708.0  4.2607e-15 
     4710.0  4.2247e-15 
     4712.0  4.2537e-15 
     4714.0  4.0141e-15 
     4716.0  4.2954e-15 
     4718.0  4.4058e-15 
     4720.0  4.2554e-15 
     4722.0  4.1951e-15 
     4724.0  4.0051e-15 
     4726.0   4.125e-15 
     4728.0    4.21e-15 
     4730.0  4.0203e-15 
     4732.0  4.0567e-15 
     4734.0  4.3233e-15 
     4736.0  4.3245e-15 
     4738.0   4.225e-15 
     4740.0  4.2523e-15 
     4742.0  4.2224e-15 
     4744.0  4.2382e-15 
     4746.0  4.1363e-15 
     4748.0  4.2302e-15 
     4750.0  4.2732e-15 
     4752.0  4.3558e-15 
     4754.0  4.4039e-15 
     4756.0  4.4589e-15 
     4758.0  4.3596e-15 
     4760.0   4.202e-15 
     4762.0  4.3957e-15 
     4764.0  4.1345e-15 
     4766.0   4.523e-15 
     4768.0  4.2789e-15 
     4770.0  4.3842e-15 
     4772.0  4.2799e-15 
     4774.0  4.3355e-15 
     4776.0  4.5188e-15 
     4778.0  4.5432e-15 
     4780.0  4.1379e-15 
     4782.0  4.3431e-15 
     4784.0  4.2611e-15 
     4786.0  4.4402e-15 
     4788.0  4.3082e-15 
     4790.0  4.4115e-15 
     4792.0   4.454e-15 
     4794.0  4.3197e-15 
     4796.0  4.3412e-15 
     4798.0  4.3173e-15 
     4800.0  4.2207e-15 
     4802.0   4.108e-15 
     4804.0  4.4399e-15 
     4806.0  4.2751e-15 
     4808.0   4.371e-15 
     4810.0  4.3012e-15 
     4812.0  4.3529e-15 
     4814.0  4.3056e-15 
     4816.0  4.2007e-15 
     4818.0  4.1546e-15 
     4820.0  4.1731e-15 
     4822.0  4.4611e-15 
     4824.0  4.2823e-15 
     4826.0  4.1606e-15 
     4828.0  4.0828e-15 
     4830.0   4.202e-15 
     4832.0  4.1501e-15 
     4834.0  4.2788e-15 
     4836.0  4.1572e-15 
     4838.0  4.3213e-15 
     4840.0  4.1454e-15 
     4842.0  4.3316e-15 
     4844.0  4.1762e-15 
     4846.0  4.0723e-15 
     4848.0  4.0279e-15 
     4850.0  4.0905e-15 
     4852.0  4.2042e-15 
     4854.0   4.213e-15 
     4856.0  4.3617e-15 
     4858.0  4.6019e-15 
     4860.0  4.2731e-15 
     4862.0  4.4787e-15 
     4864.0  4.4193e-15 
     4866.0  4.6367e-15 
     4868.0  4.3371e-15 
     4870.0   4.217e-15 
     4872.0  4.0697e-15 
     4874.0  4.2062e-15 
     4876.0  4.1953e-15 
     4878.0  4.1946e-15 
     4880.0  4.2689e-15 
     4882.0   4.238e-15 
     4884.0  4.0354e-15 
     4886.0    4.12e-15 
     4888.0  4.2145e-15 
     4890.0  4.2241e-15 
     4892.0  4.2464e-15 
     4894.0    4.13e-15 
     4896.0  4.2907e-15 
     4898.0  4.2452e-15 
     4900.0  4.3523e-15 
     4902.0  4.1527e-15 
     4904.0  4.2968e-15 
     4906.0  4.4648e-15 
     4908.0  4.1753e-15 
     4910.0  4.0558e-15 
     4912.0  4.0648e-15 
     4914.0  4.2185e-15 
     4916.0    4.17e-15 
     4918.0  4.3425e-15 
     4920.0  4.3648e-15 
     4922.0  4.2286e-15 
     4924.0  4.2387e-15 
     4926.0  4.0677e-15 
     4928.0  4.1359e-15 
     4930.0  4.3556e-15 
     4932.0  4.2299e-15 
     4934.0  4.1289e-15 
     4936.0  4.2364e-15 
     4938.0  4.2731e-15 
     4940.0   4.178e-15 
     4942.0  4.0958e-15 
     4944.0  4.1743e-15 
     4946.0  4.3711e-15 
     4948.0  4.1307e-15 
     4950.0  4.0159e-15 
     4952.0  4.0393e-15 
     4954.0  4.0036e-15 
     4956.0  3.9926e-15 
     4958.0   4.056e-15 
     4960.0  3.9873e-15 
     4962.0  4.0628e-15 
     4964.0  4.1239e-15 
