# STATUS =
# OBJECT = 2019kwt
# TELESCOPE = Keck1
# INSTRUMENT = LRIS
# DATE-OBS = 2019-07-02 00:00:00.000
# MJD = 58666.0
# EXPTIME =
# AIRMASS =
# SLIT =
# DISPERSER =
# SOURCE = DOI 10.3847/1538-4357/aca161
# FILTER =
# RESOLUTION =
# FLUX_STANDARD =
# EXTINCTION_CORRECTED =
# PHOTOMETRY_CALIBRATED =
# TELLURIC_CORRECTED =
# FLUX_UNITS =
# WAVE_UNITS =
# QUALITY =
# MIN_WAVE = 3106.2524
# MAX_WAVE = 10306.4
# COMMENT =
 Wavelength          Flux 
   3108.208   5.12183e-17 
  3110.1638   7.40295e-17 
  3112.1206   2.77905e-18 
  3114.0776   9.37298e-17 
  3116.0356  -1.90257e-17 
  3117.9939   4.39874e-18 
  3119.9531   8.58292e-17 
  3121.9128  -8.45475e-19 
   3123.873   9.19363e-17 
   3125.834   1.21495e-16 
  3127.7957  -1.82314e-17 
  3129.7578  -1.08809e-17 
  3131.7205   4.35286e-18 
  3133.6838  -1.32675e-17 
  3135.6477   9.50757e-18 
  3137.6123  -2.84767e-17 
  3139.5774   4.60618e-17 
  3141.5432   4.30434e-17 
  3143.5095   1.63653e-18 
  3145.4766  -6.35257e-17 
  3147.4441   6.68653e-17 
  3149.4124  -1.44383e-17 
  3151.3811   2.57906e-17 
  3153.3506   2.36721e-17 
  3155.3206   1.44428e-17 
   3157.291   2.39659e-17 
  3159.2622   2.99534e-17 
  3161.2339  -2.41035e-17 
  3163.2063  -3.22112e-17 
  3165.1792    2.5024e-17 
  3167.1528  -4.85068e-19 
   3169.127  -2.32255e-17 
  3171.1016   3.18892e-17 
  3173.0769  -7.71691e-18 
  3175.0527   1.76234e-17 
  3177.0293    4.6797e-17 
  3179.0063  -2.56272e-18 
  3180.9839   1.48849e-17 
  3182.9622   2.53273e-17 
  3184.9409   8.60774e-18 
  3186.9204   2.39248e-17 
  3188.9004  -2.66695e-17 
  3190.8809  -2.43528e-17 
  3192.8621   3.42481e-18 
  3194.8438  -1.69788e-17 
  3196.8259  -1.00622e-17 
  3198.8088   6.52706e-18 
  3200.7922  -4.86287e-18 
  3202.7764   1.45463e-17 
   3204.761   3.55394e-19 
  3206.7461  -6.37068e-19 
  3208.7317   5.15632e-18 
   3210.718   6.93444e-18 
  3212.7048  -2.53485e-18 
  3214.6924  -3.10973e-18 
  3216.6804  -6.16401e-18 
  3218.6689   3.04251e-18 
   3220.658   2.00657e-17 
  3222.6477   1.59803e-17 
  3224.6379   3.81347e-18 
  3226.6289   3.10825e-17 
  3228.6201   7.19127e-18 
  3230.6121  -1.57669e-19 
  3232.6045  -9.03859e-20 
  3234.5977  -1.47148e-17 
  3236.5913   1.28641e-17 
  3238.5854   4.44169e-18 
  3240.5801   3.04908e-17 
  3242.5754   1.72155e-17 
  3244.5713   2.12871e-17 
  3246.5676   3.46725e-18 
  3248.5647   1.46985e-17 
   3250.562   9.24264e-18 
  3252.5601   1.78186e-17 
  3254.5586   2.12268e-18 
  3256.5579   8.04338e-18 
  3258.5576    1.8153e-17 
  3260.5576   1.52077e-17 
  3262.5586   1.45636e-17 
  3264.5598   1.00005e-18 
  3266.5618   1.28301e-17 
  3268.5642   3.02633e-17 
  3270.5671  -4.57259e-18 
  3272.5706   -1.5995e-18 
  3274.5747  -8.77501e-18 
  3276.5791  -4.75576e-18 
  3278.5842  -5.33222e-18 
  3280.5898   1.76167e-19 
  3282.5962   1.44536e-17 
  3284.6028   1.39668e-17 
  3286.6101  -1.00046e-18 
  3288.6179   -1.5895e-17 
  3290.6262  -5.15291e-18 
   3292.635   3.82154e-18 
  3294.6443   1.64403e-17 
  3296.6543   1.73794e-17 
  3298.6648    1.0812e-17 
  3300.6758  -5.06607e-19 
  3302.6873   1.50503e-17 
  3304.6992   6.79136e-18 
  3306.7117  -2.51815e-18 
  3308.7249   9.72315e-18 
  3310.7383   1.26278e-17 
  3312.7524   6.50147e-18 
  3314.7671   1.24882e-17 
  3316.7822   8.49293e-18 
  3318.7981    8.7219e-18 
  3320.8142   2.69265e-17 
  3322.8308  -6.56199e-18 
  3324.8481   1.24608e-17 
   3326.866   2.64679e-18 
   3328.884   9.12065e-18 
  3330.9028   1.06758e-17 
  3332.9221    1.2487e-17 
  3334.9419   3.29225e-18 
  3336.9624  -6.00382e-18 
  3338.9832   1.15142e-17 
  3341.0044   1.67044e-20 
  3343.0264   -1.4472e-18 
  3345.0486   1.10457e-17 
  3347.0715   4.58011e-18 
   3349.095   9.56168e-18 
  3351.1189   1.93608e-17 
  3353.1431   4.09452e-18 
   3355.168  -9.41604e-18 
  3357.1934   5.47215e-18 
  3359.2192   7.85393e-18 
  3361.2456   1.29082e-17 
  3363.2727   6.52209e-18 
  3365.2998   1.72403e-17 
  3367.3279   4.87002e-18 
  3369.3562   1.94682e-17 
   3371.385    5.3045e-18 
  3373.4143   1.72436e-17 
  3375.4443   5.97249e-18 
  3377.4746   1.37396e-17 
  3379.5056   1.77472e-17 
  3381.5369   6.48515e-18 
  3383.5686   1.88275e-17 
  3385.6011   9.50923e-18 
  3387.6338   9.62897e-18 
   3389.667   5.87829e-18 
  3391.7009   1.12753e-17 
  3393.7351   1.91952e-17 
    3395.77   1.72322e-17 
  3397.8052   2.38176e-17 
  3399.8411   6.59271e-18 
  3401.8772   1.44806e-17 
  3403.9138   1.24758e-17 
  3405.9512   1.09819e-17 
  3407.9888   1.46269e-17 
  3410.0269   7.00466e-18 
  3412.0654   1.82679e-17 
  3414.1045   9.52841e-18 
  3416.1443   7.56474e-18 
  3418.1841   1.29425e-17 
  3420.2246   1.67595e-17 
  3422.2656   1.03978e-17 
  3424.3071    4.2444e-19 
  3426.3491   1.29307e-17 
  3428.3916   9.55389e-18 
  3430.4346   1.29845e-17 
  3432.4778   5.84068e-18 
  3434.5217   1.98528e-17 
  3436.5659   8.36698e-18 
  3438.6106   1.12781e-17 
   3440.656   5.89365e-18 
  3442.7017   1.61939e-18 
  3444.7478   6.45193e-18 
  3446.7944     5.927e-18 
  3448.8416   1.43293e-17 
  3450.8892    6.3492e-18 
   3452.937   7.30491e-18 
  3454.9856  -2.11367e-18 
  3457.0344   1.24576e-17 
   3459.084   1.35283e-17 
  3461.1338  -4.34323e-19 
  3463.1841     5.834e-18 
  3465.2349    5.7694e-18 
  3467.2861    8.3705e-18 
  3469.3376   1.10825e-17 
  3471.3899   1.06275e-18 
  3473.4424   4.47813e-18 
  3475.4956   8.89765e-18 
  3477.5491   1.13531e-17 
  3479.6028    3.6928e-18 
  3481.6572   4.05102e-18 
  3483.7122   6.47211e-18 
  3485.7673   6.31309e-18 
   3487.823   1.47094e-17 
  3489.8794   4.66619e-18 
  3491.9358   6.39468e-18 
  3493.9929   1.68234e-17 
  3496.0505   3.62525e-18 
  3498.1084   2.10807e-18 
   3500.167   1.08026e-17 
  3502.2256   5.68913e-18 
  3504.2849   4.04729e-18 
  3506.3447   2.27452e-18 
  3508.4048   9.07203e-18 
  3510.4653   9.29733e-18 
  3512.5266   1.08818e-17 
  3514.5879   7.12816e-18 
  3516.6499   2.89932e-18 
  3518.7122   9.03523e-18 
  3520.7749   5.64764e-18 
  3522.8381   1.29953e-18 
  3524.9019   1.70519e-18 
  3526.9658   6.00426e-18 
  3529.0303   2.94034e-18 
  3531.0952   3.39414e-18 
  3533.1606    5.1956e-18 
  3535.2263   5.99336e-18 
  3537.2925   2.83349e-18 
  3539.3591  -1.74057e-18 
  3541.4263   9.35704e-18 
  3543.4939   1.41252e-17 
  3545.5618   2.30371e-18 
  3547.6299    7.4741e-18 
  3549.6987   9.71493e-18 
  3551.7681     7.386e-18 
  3553.8376   9.26327e-18 
  3555.9077   1.12025e-17 
   3557.978   4.77687e-18 
  3560.0488   1.42762e-17 
  3562.1201    6.9164e-18 
  3564.1919   7.91672e-18 
  3566.2639   6.93818e-18 
  3568.3364   6.03022e-18 
  3570.4092   1.30654e-17 
  3572.4827   6.18039e-18 
  3574.5564   1.13984e-17 
  3576.6306   1.34048e-17 
  3578.7051   7.11745e-18 
  3580.7803   1.07407e-17 
  3582.8557   3.38873e-18 
  3584.9314   6.95975e-18 
  3587.0076   3.96233e-18 
  3589.0842   6.61525e-18 
  3591.1611   1.05809e-17 
  3593.2385   7.87787e-18 
  3595.3164   1.62528e-18 
  3597.3948   9.65479e-18 
  3599.4734   5.95584e-18 
  3601.5525   8.33759e-18 
  3603.6318   8.92749e-18 
  3605.7117   1.33022e-17 
   3607.792   1.03373e-17 
  3609.8726   1.01354e-17 
  3611.9536   1.00381e-17 
  3614.0349   9.94433e-18 
  3616.1167   1.07763e-17 
  3618.1992   1.05641e-17 
  3620.2817   1.37882e-17 
  3622.3647   1.61392e-17 
   3624.448   1.30521e-17 
   3626.532   6.39552e-18 
  3628.6162   1.50855e-17 
  3630.7007   1.19104e-17 
  3632.7856   1.31559e-17 
  3634.8711   1.49689e-17 
  3636.9568    2.6763e-18 
  3639.0427   1.07344e-17 
  3641.1294     2.087e-17 
  3643.2163   1.47008e-17 
  3645.3037   2.02161e-17 
  3647.3911   1.33376e-17 
  3649.4792    2.0923e-17 
  3651.5676   9.43306e-18 
  3653.6565   1.70803e-17 
  3655.7456   1.68775e-17 
  3657.8352   1.87493e-17 
  3659.9253   1.83506e-17 
  3662.0156   2.19399e-17 
  3664.1062   1.64906e-17 
  3666.1975   1.38628e-17 
  3668.2888    1.5779e-17 
  3670.3809   2.24191e-17 
  3672.4729   2.22364e-17 
  3674.5657     2.447e-17 
  3676.6584     2.372e-17 
   3678.752    2.0864e-17 
  3680.8457    2.5548e-17 
  3682.9397   2.46351e-17 
  3685.0342    2.1758e-17 
  3687.1289   1.97575e-17 
  3689.2241   2.31078e-17 
  3691.3196   2.50578e-17 
  3693.4155   2.56647e-17 
   3695.512   2.08295e-17 
  3697.6086   2.59692e-17 
  3699.7056   2.91474e-17 
   3701.803   2.43013e-17 
  3703.9006   2.05132e-17 
  3705.9988   2.33842e-17 
  3708.0974   2.24187e-17 
  3710.1963   2.52856e-17 
  3712.2954   2.51643e-17 
   3714.395   2.30561e-17 
  3716.4949   2.27663e-17 
  3718.5952   2.30146e-17 
  3720.6958   3.14078e-17 
  3722.7966   2.78495e-17 
  3724.8979   2.58251e-17 
  3726.9998   3.52238e-17 
  3729.1018   2.80695e-17 
  3731.2041   2.70044e-17 
  3733.3069   2.97466e-17 
  3735.4099   2.25298e-17 
  3737.5134   3.60429e-17 
  3739.6172   3.25981e-17 
  3741.7214   3.51195e-17 
  3743.8259   3.32589e-17 
  3745.9309   3.28483e-17 
  3748.0359   3.99227e-17 
  3750.1416   3.60215e-17 
  3752.2473   2.88338e-17 
  3754.3538   3.70425e-17 
  3756.4602   3.54544e-17 
  3758.5671    2.9992e-17 
  3760.6743   3.42514e-17 
   3762.782   3.79547e-17 
  3764.8899   4.34983e-17 
  3766.9983   3.99504e-17 
  3769.1069   4.10666e-17 
  3771.2158   3.92782e-17 
  3773.3252   4.65023e-17 
  3775.4348    3.6676e-17 
  3777.5449   3.61546e-17 
   3779.655   3.54203e-17 
  3781.7656   3.74691e-17 
  3783.8767   3.94041e-17 
   3785.988   3.75767e-17 
  3788.0996   3.45861e-17 
  3790.2117   3.34232e-17 
   3792.324    2.7859e-17 
  3794.4365   3.40856e-17 
  3796.5496   3.42186e-17 
  3798.6628   3.81383e-17 
  3800.7766   2.93917e-17 
  3802.8904   3.40274e-17 
  3805.0049   4.32898e-17 
  3807.1194   3.39276e-17 
  3809.2344   3.87964e-17 
  3811.3496   3.94396e-17 
  3813.4651   3.73289e-17 
  3815.5811   3.81611e-17 
  3817.6973   3.83059e-17 
   3819.814   4.33654e-17 
  3821.9307   3.99347e-17 
  3824.0479   4.65536e-17 
  3826.1655   3.67759e-17 
  3828.2832   3.54394e-17 
  3830.4014   4.43269e-17 
    3832.52   3.86226e-17 
  3834.6387   3.99528e-17 
  3836.7578     3.845e-17 
  3838.8772    3.9711e-17 
  3840.9968   4.11349e-17 
  3843.1169   4.35163e-17 
  3845.2373   4.24158e-17 
  3847.3579   4.26559e-17 
   3849.479   4.72324e-17 
  3851.6003   3.90038e-17 
  3853.7219   4.11287e-17 
  3855.8438   3.88338e-17 
  3857.9661   4.46205e-17 
  3860.0886   4.41797e-17 
  3862.2114   4.45014e-17 
  3864.3347   3.76445e-17 
   3866.458   3.83857e-17 
  3868.5818   3.98586e-17 
  3870.7058   3.89186e-17 
  3872.8301   4.58515e-17 
  3874.9548   3.34863e-17 
  3877.0798   4.26217e-17 
  3879.2051   4.80717e-17 
  3881.3308   4.05407e-17 
  3883.4565   3.66579e-17 
  3885.5828   4.01813e-17 
  3887.7092    4.4104e-17 
  3889.8359   4.34705e-17 
  3891.9629   4.45578e-17 
  3894.0903   4.31226e-17 
   3896.218   4.22543e-17 
  3898.3459   4.44279e-17 
  3900.4744   4.27842e-17 
  3902.6028   3.95111e-17 
  3904.7317   3.83522e-17 
  3906.8608   4.07384e-17 
  3908.9902   4.39454e-17 
  3911.1199   3.94344e-17 
    3913.25   4.52591e-17 
  3915.3801   4.33052e-17 
  3917.5107   4.35921e-17 
  3919.6416   3.92905e-17 
  3921.7727   5.04336e-17 
  3923.9043   4.52838e-17 
  3926.0359   4.81159e-17 
   3928.168   3.85714e-17 
  3930.3003   4.39037e-17 
  3932.4329   4.59359e-17 
  3934.5657   4.18543e-17 
   3936.699   4.25892e-17 
  3938.8323   4.64364e-17 
  3940.9661   4.92708e-17 
  3943.1001   4.45583e-17 
  3945.2344   4.99565e-17 
  3947.3689   4.53586e-17 
  3949.5037   4.63653e-17 
  3951.6389   4.30339e-17 
  3953.7742   4.62588e-17 
  3955.9099   4.41995e-17 
  3958.0459   4.70579e-17 
  3960.1819   5.00579e-17 
  3962.3186   4.44036e-17 
  3964.4553   4.26763e-17 
  3966.5923   4.81773e-17 
  3968.7295   4.70169e-17 
  3970.8672   4.70445e-17 
  3973.0051   4.26272e-17 
  3975.1433    4.7455e-17 
  3977.2815   4.28485e-17 
  3979.4202   5.06241e-17 
  3981.5591   4.55496e-17 
  3983.6985   3.55863e-17 
  3985.8379   4.03896e-17 
  3987.9775   3.86382e-17 
  3990.1177   3.82865e-17 
  3992.2578   4.03932e-17 
  3994.3982    4.1478e-17 
  3996.5391   3.97729e-17 
  3998.6802   4.20685e-17 
  4000.8215    4.0987e-17 
  4002.9631   4.05441e-17 
   4005.105   3.57732e-17 
  4007.2471   3.87922e-17 
  4009.3894   4.39375e-17 
   4011.532    4.4647e-17 
  4013.6748   4.52207e-17 
  4015.8181    4.3182e-17 
  4017.9614   4.16444e-17 
   4020.105   3.99581e-17 
  4022.2488   3.57508e-17 
  4024.3931   3.72013e-17 
  4026.5376    3.7969e-17 
  4028.6821   4.19303e-17 
  4030.8271   3.53833e-17 
  4032.9724   3.75125e-17 
  4035.1177   3.99432e-17 
  4037.2634   3.62551e-17 
  4039.4092   2.98416e-17 
  4041.5554    4.0455e-17 
  4043.7019    3.5169e-17 
  4045.8484   3.68327e-17 
  4047.9956   3.20862e-17 
  4050.1426   3.47188e-17 
    4052.29   3.14025e-17 
  4054.4377   3.47741e-17 
  4056.5857   3.50953e-17 
  4058.7336   3.02035e-17 
  4060.8821   3.16472e-17 
  4063.0308    3.2438e-17 
  4065.1797   3.51422e-17 
  4067.3289   2.94212e-17 
   4069.478   3.59133e-17 
  4071.6277   3.12863e-17 
  4073.7776   3.34545e-17 
  4075.9275   3.61567e-17 
  4078.0779   3.26245e-17 
  4080.2285   3.09104e-17 
  4082.3794   3.55301e-17 
  4084.5303   2.67615e-17 
  4086.6816   3.49799e-17 
   4088.833   3.81334e-17 
  4090.9849   3.60502e-17 
  4093.1367   3.36121e-17 
  4095.2891   3.49662e-17 
  4097.4414   3.40621e-17 
  4099.5942   2.95467e-17 
  4101.7471   2.99691e-17 
  4103.9004   3.12069e-17 
  4106.0537   3.10164e-17 
   4108.207   2.99351e-17 
  4110.3608   3.32603e-17 
  4112.5151   3.05228e-17 
  4114.6694   3.17938e-17 
  4116.8237   3.10182e-17 
  4118.9785   3.61373e-17 
  4121.1333   3.33608e-17 
  4123.2886   3.53988e-17 
  4125.4443   2.98677e-17 
  4127.5996    3.0327e-17 
  4129.7554   3.31094e-17 
  4131.9116   3.03487e-17 
  4134.0679   3.04012e-17 
  4136.2246   3.22715e-17 
  4138.3813   3.06155e-17 
  4140.5381   2.98266e-17 
  4142.6953   3.29274e-17 
  4144.8525   2.76628e-17 
  4147.0103   3.19917e-17 
   4149.168   3.26946e-17 
  4151.3262   3.10021e-17 
  4153.4844   3.60993e-17 
  4155.6431   2.98829e-17 
  4157.8018   3.35233e-17 
  4159.9604    3.3316e-17 
  4162.1196   3.40121e-17 
  4164.2793   3.50044e-17 
  4166.4385   3.69474e-17 
  4168.5986   3.25691e-17 
  4170.7583    3.7112e-17 
  4172.9185   3.23891e-17 
  4175.0791   3.36208e-17 
  4177.2397   3.06745e-17 
  4179.4004   3.20743e-17 
  4181.5615   3.73326e-17 
  4183.7227   3.70959e-17 
  4185.8843   3.61294e-17 
  4188.0459   3.67124e-17 
  4190.2075   3.73009e-17 
  4192.3696   3.67774e-17 
  4194.5322   3.98496e-17 
  4196.6943   3.43899e-17 
  4198.8569   4.02689e-17 
    4201.02   3.43926e-17 
  4203.1831   3.42906e-17 
  4205.3462   3.45365e-17 
  4207.5098   3.73763e-17 
  4209.6733   3.59441e-17 
  4211.8374   3.63659e-17 
  4214.0015   3.54237e-17 
   4216.166   3.56956e-17 
  4218.3301   3.63396e-17 
  4220.4951   3.07403e-17 
  4222.6597   3.40273e-17 
  4224.8247   3.07089e-17 
  4226.9902   3.47975e-17 
  4229.1558   3.48377e-17 
  4231.3213    3.2536e-17 
  4233.4873   3.32083e-17 
  4235.6533   3.48987e-17 
  4237.8193   3.24933e-17 
  4239.9858    3.3704e-17 
  4242.1523    3.1524e-17 
  4244.3193   3.68031e-17 
  4246.4863   3.55974e-17 
  4248.6533   3.35443e-17 
  4250.8208   3.36955e-17 
  4252.9883   3.32677e-17 
  4255.1562   3.36877e-17 
  4257.3242   3.36179e-17 
  4259.4922   3.88008e-17 
  4261.6606   3.33728e-17 
  4263.8291   3.51026e-17 
  4265.9976   3.59876e-17 
  4268.1665   3.20891e-17 
  4270.3359   3.38584e-17 
  4272.5049   3.59327e-17 
  4274.6743   3.65109e-17 
  4276.8438   3.74784e-17 
  4279.0137   4.13295e-17 
  4281.1836   3.97855e-17 
   4283.354   3.46495e-17 
  4285.5244    3.5629e-17 
  4287.6948   3.34194e-17 
  4289.8652   3.56063e-17 
  4292.0361   3.68024e-17 
  4294.2075   3.96803e-17 
  4296.3784   3.66626e-17 
  4298.5498   3.63998e-17 
  4300.7217   3.53342e-17 
  4302.8931   3.84635e-17 
  4305.0654   3.50667e-17 
  4307.2373   3.84179e-17 
  4309.4097    3.7715e-17 
   4311.582   3.73731e-17 
  4313.7544   3.95233e-17 
  4315.9272   3.37523e-17 
  4318.1001   3.68585e-17 
  4320.2734   3.51433e-17 
  4322.4468   3.68398e-17 
  4324.6201   3.04909e-17 
  4326.7939   3.79039e-17 
  4328.9678   3.73468e-17 
  4331.1416   3.44365e-17 
  4333.3159    3.4514e-17 
  4335.4902   3.57654e-17 
  4337.6646   3.48354e-17 
  4339.8394   3.53645e-17 
  4342.0142   3.46732e-17 
   4344.189   3.49022e-17 
  4346.3643   3.23015e-17 
  4348.5396   3.14713e-17 
  4350.7148   3.40783e-17 
  4352.8906   3.25333e-17 
  4355.0664   3.64559e-17 
  4357.2422   3.13202e-17 
  4359.4185   3.33554e-17 
  4361.5947   3.07182e-17 
   4363.771   3.25101e-17 
  4365.9478     3.262e-17 
  4368.1245   3.10652e-17 
  4370.3013   3.74453e-17 
  4372.4785    3.3327e-17 
  4374.6558   3.33936e-17 
   4376.833   3.43251e-17 
  4379.0107    3.5016e-17 
   4381.188   3.56957e-17 
  4383.3662   3.12645e-17 
  4385.5439   3.55134e-17 
  4387.7222   3.29037e-17 
  4389.9004   3.67458e-17 
  4392.0791   3.64908e-17 
  4394.2573   3.37117e-17 
  4396.4365   3.35307e-17 
  4398.6152   3.68697e-17 
  4400.7944   3.21746e-17 
  4402.9736   3.85266e-17 
  4405.1528   3.64388e-17 
  4407.3325   3.65287e-17 
  4409.5117    3.4028e-17 
  4411.6919   3.14884e-17 
  4413.8716   3.39394e-17 
  4416.0518   3.38958e-17 
  4418.2319   3.80087e-17 
  4420.4126   3.45425e-17 
  4422.5928   3.89317e-17 
  4424.7734   3.59546e-17 
  4426.9546   3.89775e-17 
  4429.1353   3.51618e-17 
  4431.3164   3.26592e-17 
  4433.4976   3.24236e-17 
  4435.6792   3.57532e-17 
  4437.8608   3.32103e-17 
  4440.0425   3.51412e-17 
  4442.2241   3.71327e-17 
  4444.4062   3.66526e-17 
  4446.5879   3.47042e-17 
  4448.7705   3.61702e-17 
  4450.9526   3.63874e-17 
  4453.1353   3.30626e-17 
  4455.3179    3.5196e-17 
  4457.5005   3.52934e-17 
  4459.6836   3.37285e-17 
  4461.8667   3.80716e-17 
  4464.0498   3.71773e-17 
  4466.2329   3.65429e-17 
  4468.4165   3.39151e-17 
  4470.6001   3.83682e-17 
  4472.7837   3.43849e-17 
  4474.9678   3.58935e-17 
  4477.1514    3.9451e-17 
  4479.3359   3.44422e-17 
    4481.52    3.4317e-17 
  4483.7046   3.69418e-17 
  4485.8887   3.75497e-17 
  4488.0737   3.39282e-17 
  4490.2583   4.00576e-17 
  4492.4429   3.86756e-17 
  4494.6279   4.37046e-17 
  4496.8135   3.75055e-17 
  4498.9985   3.18974e-17 
  4501.1841   3.70407e-17 
  4503.3696   3.83564e-17 
  4505.5552   3.72023e-17 
  4507.7407   3.90323e-17 
  4509.9268   3.66596e-17 
  4512.1128   3.90634e-17 
  4514.2988   3.51717e-17 
  4516.4849   3.93883e-17 
  4518.6714   3.17721e-17 
  4520.8579   3.43047e-17 
  4523.0444   3.66485e-17 
  4525.2314   3.45785e-17 
   4527.418    3.1499e-17 
   4529.605   3.70759e-17 
  4531.7925    3.5512e-17 
  4533.9795   3.73523e-17 
   4536.167   3.45231e-17 
  4538.3545   3.20711e-17 
   4540.542    3.5882e-17 
  4542.7295   3.46971e-17 
  4544.9175   3.61992e-17 
  4547.1055   3.09756e-17 
  4549.2935   3.71302e-17 
  4551.4814    3.4067e-17 
  4553.6699   3.45625e-17 
  4555.8579   3.52473e-17 
  4558.0464   3.82803e-17 
  4560.2354   3.62863e-17 
  4562.4238     3.771e-17 
  4564.6128   3.59288e-17 
  4566.8018   3.77108e-17 
  4568.9907   3.63032e-17 
  4571.1797   3.57252e-17 
  4573.3691   3.57348e-17 
  4575.5586   3.12048e-17 
   4577.748   3.60194e-17 
  4579.9375    3.7624e-17 
  4582.1274     4.009e-17 
  4584.3169   3.46669e-17 
  4586.5068   3.69777e-17 
  4588.6968   3.67742e-17 
  4590.8872   3.82852e-17 
  4593.0771   3.60992e-17 
  4595.2676   4.05153e-17 
   4597.458   4.27491e-17 
  4599.6484   4.03576e-17 
  4601.8394   3.94825e-17 
  4604.0298   3.79218e-17 
  4606.2207   3.92294e-17 
  4608.4116   4.12443e-17 
   4610.603   3.85166e-17 
  4612.7939   4.13408e-17 
  4614.9854   3.79696e-17 
  4617.1768    3.8285e-17 
  4619.3682   4.39656e-17 
  4621.5596   4.22401e-17 
   4623.751   4.09684e-17 
  4625.9429   4.15296e-17 
  4628.1348   4.16581e-17 
