# STATUS =
# OBJECT = 2019otl
# TELESCOPE = P200
# INSTRUMENT = SEDM
# DATE-OBS = 2019-09-06 00:00:00.000
# MJD = 58732.0
# EXPTIME =
# AIRMASS =
# SLIT =
# DISPERSER =
# SOURCE = DOI 10.3847/1538-4357/aca161
# FILTER =
# RESOLUTION =
# FLUX_STANDARD =
# EXTINCTION_CORRECTED =
# PHOTOMETRY_CALIBRATED =
# TELLURIC_CORRECTED =
# FLUX_UNITS =
# WAVE_UNITS =
# QUALITY =
# MIN_WAVE = 3400.0
# MAX_WAVE = 10000.054168
# COMMENT =
   Wavelength         Flux 
  3401.532046   1.0323e-16 
  3403.064092   1.0552e-16 
  3404.596138   5.8146e-17 
  3406.128184   8.6419e-17 
   3407.66023   8.3241e-17 
  3409.192276   7.5302e-17 
  3410.724322   9.4162e-17 
  3412.256368   6.7389e-17 
  3413.788414   8.3961e-17 
   3415.32046   8.9477e-17 
  3416.852506   4.8433e-17 
  3418.384552   8.3486e-17 
  3419.916598   9.1882e-17 
  3421.448644   6.9112e-17 
   3422.98069   7.9608e-17 
  3424.512736   8.4892e-17 
  3426.044782   6.3016e-17 
  3427.576828   8.0672e-17 
  3429.108874   3.5568e-17 
   3430.64092   3.2805e-17 
  3432.172966    2.962e-17 
  3433.705012   4.1852e-17 
  3435.237058   4.2304e-17 
  3436.769104   9.0683e-17 
   3438.30115   1.1595e-16 
  3439.833196   5.2565e-17 
  3441.365242   6.0708e-17 
  3442.897288   6.3207e-17 
  3444.429334   8.5283e-17 
   3445.96138   5.1725e-17 
  3447.493426   7.2184e-17 
  3449.025472   6.1238e-17 
  3450.557518   6.1148e-17 
  3452.089564   1.0228e-16 
   3453.62161   1.0578e-16 
  3455.153656   9.5205e-17 
  3456.685702   1.1797e-16 
  3458.217748   7.7849e-17 
  3459.749794   6.2331e-17 
   3461.28184    8.039e-17 
  3462.813886   7.1693e-17 
  3464.345932   7.1371e-17 
  3465.877978   9.0256e-17 
  3467.410024   1.0431e-16 
   3468.94207   1.3356e-16 
  3470.474116   8.2053e-17 
  3472.006162   9.7926e-17 
  3473.538208   6.4334e-17 
  3475.070254   8.0453e-17 
    3476.6023    7.425e-17 
  3478.134346   1.0813e-16 
  3479.666392   1.1635e-16 
  3481.198438   7.5452e-17 
  3482.730484   9.7352e-17 
   3484.26253   3.8953e-17 
  3485.794576   5.7765e-17 
  3487.326622    5.914e-17 
  3488.858668   5.7318e-17 
  3490.390714   8.1483e-17 
   3491.92276    9.429e-17 
  3493.454806   7.0802e-17 
  3494.986852   4.3492e-17 
  3496.518898   9.5451e-17 
  3498.050944   9.3483e-17 
   3499.58299   8.2808e-17 
  3501.115036    8.986e-17 
  3502.647082   6.3385e-17 
  3504.179128    5.616e-17 
  3505.711174   6.8876e-17 
   3507.24322   6.8286e-17 
  3508.775266   8.9598e-17 
  3510.307312   7.4301e-17 
  3511.839358   1.0042e-16 
  3513.371404   9.3642e-17 
   3514.90345   8.0734e-17 
  3516.435496   6.5499e-17 
  3517.967542   5.4558e-17 
  3519.499588   6.5921e-17 
  3521.031634   7.9191e-17 
   3522.56368   5.0708e-17 
  3524.095726   9.4233e-17 
  3525.627772   1.0312e-16 
  3527.159818   9.2336e-17 
  3528.691864   8.4231e-17 
   3530.22391   1.1709e-16 
  3531.755956   1.0583e-16 
  3533.288002    9.419e-17 
  3534.820048   8.3704e-17 
  3536.352094     9.72e-17 
   3537.88414   8.3692e-17 
  3539.416186   9.6023e-17 
  3540.948232   8.1179e-17 
  3542.480278   9.4186e-17 
  3544.012324   1.3048e-16 
   3545.54437   1.1123e-16 
  3547.076416   6.1318e-17 
  3548.608462   5.6914e-17 
  3550.140508   9.7584e-17 
  3551.672554   8.9612e-17 
    3553.2046   1.1506e-16 
  3554.736646   1.0588e-16 
  3556.268692   9.7265e-17 
  3557.800738   7.4007e-17 
  3559.332784   1.2706e-16 
   3560.86483   1.0387e-16 
  3562.396876   7.3734e-17 
  3563.928922   1.0601e-16 
  3565.460968    7.951e-17 
  3566.993014   9.5939e-17 
   3568.52506   7.4429e-17 
  3570.057106   8.8877e-17 
  3571.589152   5.8549e-17 
  3573.121198   9.1814e-17 
  3574.653244   8.1662e-17 
   3576.18529   6.7772e-17 
  3577.717336    7.458e-17 
  3579.249382   8.6244e-17 
  3580.781428   9.0686e-17 
  3582.313474   8.5844e-17 
   3583.84552   7.8575e-17 
  3585.377566   6.8627e-17 
  3586.909612   8.6029e-17 
  3588.441658   9.5535e-17 
  3589.973704   9.4119e-17 
   3591.50575   1.1011e-16 
  3593.037796   9.4994e-17 
  3594.569842   8.3906e-17 
  3596.101888   8.7126e-17 
  3597.633934   1.2356e-16 
   3599.16598   1.0156e-16 
  3600.698026   1.0652e-16 
  3602.230072   1.1832e-16 
  3603.762118   9.8202e-17 
  3605.294164   9.1344e-17 
   3606.82621   1.0423e-16 
  3608.358256   8.1244e-17 
  3609.890302   1.0246e-16 
  3611.422348   9.5867e-17 
  3612.954394   1.0838e-16 
   3614.48644   9.5953e-17 
  3616.018486   1.0952e-16 
  3617.550532   1.0542e-16 
  3619.082578   9.1916e-17 
  3620.614624   9.1028e-17 
   3622.14667   7.9771e-17 
  3623.678716   9.7546e-17 
  3625.210762   7.5859e-17 
  3626.742808   6.7688e-17 
  3628.274854   1.0116e-16 
    3629.8069   9.0904e-17 
  3631.338946   6.7363e-17 
  3632.870992   7.2771e-17 
  3634.403038   9.8069e-17 
  3635.935084   7.4816e-17 
   3637.46713   7.2278e-17 
  3638.999176    7.941e-17 
  3640.531222   7.0862e-17 
  3642.063268   7.4824e-17 
  3643.595314   6.7908e-17 
   3645.12736   7.2343e-17 
  3646.659406    6.711e-17 
  3648.191452   6.3502e-17 
  3649.723498   9.7945e-17 
  3651.255544   9.6199e-17 
   3652.78759   5.7152e-17 
  3654.319636   1.0947e-16 
  3655.851682   9.8449e-17 
  3657.383728   7.0199e-17 
  3658.915774   6.5599e-17 
   3660.44782    6.318e-17 
  3661.979866   8.1647e-17 
  3663.511912   8.5811e-17 
  3665.043958   8.0841e-17 
  3666.576004   7.3571e-17 
   3668.10805    7.507e-17 
  3669.640096   8.6904e-17 
  3671.172142   7.4164e-17 
  3672.704188   8.8731e-17 
  3674.236234    8.078e-17 
   3675.76828   8.4384e-17 
  3677.300326   8.4482e-17 
  3678.832372   9.4261e-17 
  3680.364418   1.0349e-16 
  3681.896464   1.0623e-16 
   3683.42851   9.4068e-17 
  3684.960556   8.3756e-17 
  3686.492602   8.8516e-17 
  3688.024648   1.0576e-16 
  3689.556694   9.0808e-17 
   3691.08874   1.0616e-16 
  3692.620786   7.8819e-17 
  3694.152832   7.5527e-17 
  3695.684878   8.5226e-17 
  3697.216924   8.7252e-17 
   3698.74897   7.6826e-17 
  3700.281016   9.8403e-17 
  3701.813062   7.1918e-17 
  3703.345108   6.6659e-17 
  3704.877154   9.7292e-17 
    3706.4092   8.1453e-17 
  3707.941246   8.5868e-17 
  3709.473292    9.801e-17 
  3711.005338   6.9444e-17 
  3712.537384   6.2546e-17 
   3714.06943    8.772e-17 
  3715.601476   6.6216e-17 
  3717.133522    7.269e-17 
  3718.665568   7.3219e-17 
  3720.197614   7.6279e-17 
   3721.72966   8.0628e-17 
  3723.261706   7.2053e-17 
  3724.793752   6.2857e-17 
  3726.325798   8.1344e-17 
  3727.857844   8.0634e-17 
   3729.38989   7.6593e-17 
  3730.921936   7.4369e-17 
  3732.453982   6.8718e-17 
  3733.986028   7.2659e-17 
  3735.518074   7.4034e-17 
   3737.05012   7.8766e-17 
  3738.582166   7.7007e-17 
  3740.114212   8.6505e-17 
  3741.646258   7.2407e-17 
  3743.178304   7.9822e-17 
   3744.71035   7.1593e-17 
  3746.242396   6.7391e-17 
  3747.774442   7.7924e-17 
  3749.306488   6.3522e-17 
  3750.838534   7.1512e-17 
   3752.37058   6.7787e-17 
  3753.902626   8.5492e-17 
  3755.434672   6.6812e-17 
  3756.966718   5.8716e-17 
  3758.498764   9.2949e-17 
   3760.03081   8.5797e-17 
  3761.562856   8.7413e-17 
  3763.094902   8.1416e-17 
  3764.626948   6.7747e-17 
  3766.158994    9.011e-17 
   3767.69104   7.4955e-17 
  3769.223086   7.3226e-17 
  3770.755132   7.6098e-17 
  3772.287178   7.0937e-17 
  3773.819224   6.9557e-17 
   3775.35127   7.3068e-17 
  3776.883316   8.6528e-17 
  3778.415362   9.1686e-17 
  3779.947408   7.6704e-17 
  3781.479454   8.1731e-17 
    3783.0115   8.7767e-17 
  3784.543546   8.5775e-17 
  3786.075592   8.4045e-17 
  3787.607638     7.99e-17 
  3789.139684   8.7624e-17 
   3790.67173   8.4797e-17 
  3792.203776   1.0948e-16 
  3793.735822   8.0563e-17 
  3795.267868   9.1908e-17 
  3796.799914   8.4568e-17 
   3798.33196   7.2126e-17 
  3799.864006   7.6046e-17 
  3801.396052   7.9791e-17 
  3802.928098   9.0773e-17 
  3804.460144   9.1606e-17 
   3805.99219   8.0285e-17 
  3807.524236   6.6275e-17 
  3809.056282   9.2175e-17 
  3810.588328    8.654e-17 
  3812.120374   8.1966e-17 
   3813.65242   9.2868e-17 
  3815.184466   7.8468e-17 
  3816.716512   8.3508e-17 
  3818.248558   9.1604e-17 
  3819.780604   8.9675e-17 
   3821.31265    9.869e-17 
  3822.844696   1.0055e-16 
  3824.376742   6.8506e-17 
  3825.908788   7.6214e-17 
  3827.440834   7.1027e-17 
   3828.97288   9.3617e-17 
  3830.504926   8.6203e-17 
  3832.036972    8.415e-17 
  3833.569018   7.5859e-17 
  3835.101064    7.509e-17 
   3836.63311    7.798e-17 
  3838.165156   6.5693e-17 
  3839.697202   8.1201e-17 
  3841.229248     8.02e-17 
  3842.761294    8.233e-17 
   3844.29334   9.5219e-17 
  3845.825386   8.6455e-17 
  3847.357432    8.454e-17 
  3848.889478   6.9295e-17 
  3850.421524   7.1331e-17 
   3851.95357   8.3658e-17 
  3853.485616    8.189e-17 
  3855.017662   7.6237e-17 
  3856.549708   8.4131e-17 
  3858.081754   8.1438e-17 
    3859.6138   7.8689e-17 
  3861.145846   6.9436e-17 
  3862.677892    7.706e-17 
  3864.209938   8.5985e-17 
  3865.741984   7.5869e-17 
   3867.27403   8.7009e-17 
  3868.806076   8.9548e-17 
  3870.338122   6.7499e-17 
  3871.870168    7.309e-17 
  3873.402214   7.3943e-17 
   3874.93426   7.5513e-17 
  3876.466306   7.4359e-17 
  3877.998352   8.8714e-17 
  3879.530398   9.7657e-17 
  3881.062444   9.4768e-17 
   3882.59449   7.0207e-17 
  3884.126536   6.8766e-17 
  3885.658582   7.3509e-17 
  3887.190628   7.8424e-17 
  3888.722674   8.2469e-17 
   3890.25472   9.7036e-17 
  3891.786766   9.9404e-17 
  3893.318812   8.1568e-17 
  3894.850858   8.4977e-17 
  3896.382904   8.8973e-17 
   3897.91495   1.0159e-16 
  3899.446996   1.0658e-16 
  3900.979042   1.0835e-16 
  3902.511088    9.535e-17 
  3904.043134   9.5112e-17 
   3905.57518   1.0464e-16 
  3907.107226   1.0363e-16 
  3908.639272   9.6648e-17 
  3910.171318    7.825e-17 
  3911.703364   8.9053e-17 
   3913.23541   9.7426e-17 
  3914.767456   9.7541e-17 
  3916.299502   8.2895e-17 
  3917.831548   1.0008e-16 
  3919.363594   1.0848e-16 
   3920.89564   9.9578e-17 
  3922.427686   8.9854e-17 
  3923.959732   9.2621e-17 
  3925.491778   9.1544e-17 
  3927.023824   8.7311e-17 
   3928.55587    8.877e-17 
  3930.087916    9.385e-17 
  3931.619962   8.0115e-17 
  3933.152008   9.2064e-17 
  3934.684054   9.1191e-17 
    3936.2161   8.4593e-17 
  3937.748146   6.9684e-17 
  3939.280192   7.9488e-17 
  3940.812238   1.0251e-16 
  3942.344284   8.6932e-17 
   3943.87633   7.1234e-17 
  3945.408376   8.9701e-17 
  3946.940422   8.4513e-17 
  3948.472468   8.5678e-17 
  3950.004514    8.805e-17 
   3951.53656   8.6618e-17 
  3953.068606   8.9401e-17 
  3954.600652   8.3897e-17 
  3956.132698     8.06e-17 
  3957.664744   9.6941e-17 
   3959.19679   8.8675e-17 
  3960.728836   8.4835e-17 
  3962.260882   8.9114e-17 
  3963.792928    7.741e-17 
  3965.324974   7.5227e-17 
   3966.85702   7.9063e-17 
  3968.389066    8.782e-17 
  3969.921112   8.5726e-17 
  3971.453158   9.1852e-17 
  3972.985204   8.3235e-17 
   3974.51725   7.1931e-17 
  3976.049296   8.7026e-17 
  3977.581342   8.2158e-17 
  3979.113388   8.0877e-17 
  3980.645434   8.3712e-17 
   3982.17748   7.8258e-17 
  3983.709526   8.8946e-17 
  3985.241572   9.0567e-17 
  3986.773618   7.7516e-17 
  3988.305664   8.0229e-17 
   3989.83771    9.016e-17 
  3991.369756   8.9947e-17 
  3992.901802   7.7285e-17 
  3994.433848   7.2886e-17 
  3995.965894   7.9144e-17 
   3997.49794   8.1167e-17 
  3999.029986   6.1922e-17 
  4000.562032   7.6752e-17 
  4002.094078   7.4374e-17 
  4003.626124   7.6008e-17 
   4005.15817   7.5903e-17 
  4006.690216   8.3372e-17 
  4008.222262    8.034e-17 
  4009.754308   6.3441e-17 
  4011.286354   5.8904e-17 
    4012.8184   8.2103e-17 
  4014.350446   7.2845e-17 
  4015.882492    8.272e-17 
  4017.414538   6.6916e-17 
  4018.946584   7.2294e-17 
   4020.47863   8.3613e-17 
  4022.010676   8.8014e-17 
  4023.542722   7.9479e-17 
  4025.074768   8.6993e-17 
  4026.606814   8.2162e-17 
   4028.13886   7.5654e-17 
  4029.670906   7.5341e-17 
  4031.202952   7.2972e-17 
  4032.734998    8.197e-17 
  4034.267044   8.2196e-17 
   4035.79909   8.0886e-17 
  4037.331136   6.7804e-17 
  4038.863182   7.2233e-17 
  4040.395228    8.031e-17 
  4041.927274   8.5617e-17 
   4043.45932   8.5338e-17 
  4044.991366   7.6053e-17 
  4046.523412   1.0578e-16 
  4048.055458   8.6029e-17 
  4049.587504   7.9376e-17 
   4051.11955   7.5989e-17 
  4052.651596   7.3781e-17 
  4054.183642   7.6039e-17 
  4055.715688   8.1682e-17 
  4057.247734   8.8882e-17 
   4058.77978   6.8542e-17 
  4060.311826   7.2577e-17 
  4061.843872   7.6258e-17 
  4063.375918   8.1683e-17 
  4064.907964    7.918e-17 
   4066.44001   8.0164e-17 
  4067.972056   7.3311e-17 
  4069.504102   9.1971e-17 
  4071.036148   8.1155e-17 
  4072.568194   1.0571e-16 
   4074.10024   7.9372e-17 
  4075.632286   6.9161e-17 
  4077.164332    8.611e-17 
  4078.696378   9.1095e-17 
  4080.228424   8.7311e-17 
   4081.76047   7.4627e-17 
  4083.292516    7.715e-17 
  4084.824562   7.7275e-17 
  4086.356608   6.8875e-17 
  4087.888654   8.3002e-17 
    4089.4207   8.5441e-17 
  4090.952746   8.3119e-17 
  4092.484792   8.6651e-17 
  4094.016838    7.351e-17 
  4095.548884   7.3453e-17 
   4097.08093   7.6146e-17 
  4098.612976   7.6586e-17 
  4100.145022   8.2652e-17 
  4101.677068   8.9851e-17 
  4103.209114   7.8803e-17 
   4104.74116   8.0836e-17 
  4106.273206   8.8861e-17 
  4107.805252    8.712e-17 
  4109.337298   7.5461e-17 
  4110.869344   7.6668e-17 
   4112.40139   8.8081e-17 
  4113.933436   7.9366e-17 
  4115.465482   7.7948e-17 
  4116.997528     7.11e-17 
  4118.529574   8.2599e-17 
   4120.06162    9.093e-17 
  4121.593666   7.7281e-17 
  4123.125712   7.5172e-17 
  4124.657758   7.0897e-17 
  4126.189804   8.1916e-17 
   4127.72185   8.7567e-17 
  4129.253896    8.921e-17 
  4130.785942   7.5588e-17 
  4132.317988   7.7818e-17 
  4133.850034   7.7137e-17 
   4135.38208    6.456e-17 
  4136.914126   6.6923e-17 
  4138.446172   6.9415e-17 
  4139.978218   7.9619e-17 
  4141.510264   9.6458e-17 
   4143.04231   7.5208e-17 
  4144.574356   8.4955e-17 
  4146.106402    8.181e-17 
  4147.638448   7.6284e-17 
  4149.170494   8.7838e-17 
   4150.70254    8.819e-17 
  4152.234586   8.1138e-17 
  4153.766632    8.176e-17 
  4155.298678   8.6181e-17 
  4156.830724   8.0642e-17 
   4158.36277   7.9108e-17 
  4159.894816   7.4864e-17 
  4161.426862   7.6602e-17 
  4162.958908    7.631e-17 
  4164.490954   7.5351e-17 
     4166.023   7.1118e-17 
  4167.555046    6.626e-17 
  4169.087092   7.8423e-17 
  4170.619138   7.9548e-17 
  4172.151184   7.6933e-17 
   4173.68323   7.4656e-17 
  4175.215276   8.0458e-17 
  4176.747322   6.8312e-17 
  4178.279368    6.172e-17 
  4179.811414    7.254e-17 
   4181.34346   7.9871e-17 
  4182.875506   8.3607e-17 
  4184.407552   8.6372e-17 
  4185.939598   9.2627e-17 
  4187.471644   8.5896e-17 
   4189.00369    8.439e-17 
  4190.535736    5.711e-17 
  4192.067782   8.0719e-17 
  4193.599828   1.0429e-16 
  4195.131874    8.916e-17 
   4196.66392   8.2593e-17 
  4198.195966   8.3622e-17 
  4199.728012   8.5904e-17 
  4201.260058   8.6501e-17 
  4202.792104   7.3736e-17 
   4204.32415   8.8614e-17 
  4205.856196   7.4752e-17 
  4207.388242    7.149e-17 
  4208.920288   7.3042e-17 
  4210.452334   9.3122e-17 
   4211.98438   9.9575e-17 
  4213.516426   8.7242e-17 
  4215.048472    8.237e-17 
  4216.580518    8.066e-17 
  4218.112564    7.246e-17 
   4219.64461    8.142e-17 
  4221.176656   7.7831e-17 
  4222.708702   6.2929e-17 
  4224.240748   7.2692e-17 
  4225.772794   7.9246e-17 
   4227.30484   7.7533e-17 
  4228.836886   8.3102e-17 
  4230.368932   8.8963e-17 
  4231.900978    7.989e-17 
  4233.433024   8.4921e-17 
   4234.96507   8.0603e-17 
  4236.497116   7.9758e-17 
  4238.029162   8.1462e-17 
  4239.561208   8.9747e-17 
  4241.093254   9.4458e-17 
    4242.6253   9.3479e-17 
  4244.157346   8.2213e-17 
  4245.689392   7.2922e-17 
  4247.221438   5.7882e-17 
  4248.753484   8.3235e-17 
   4250.28553   7.7749e-17 
  4251.817576   6.9254e-17 
  4253.349622   7.6835e-17 
  4254.881668   7.9657e-17 
  4256.413714   9.1221e-17 
   4257.94576   9.0092e-17 
  4259.477806   7.4116e-17 
  4261.009852   7.2166e-17 
  4262.541898   8.3721e-17 
  4264.073944   8.2717e-17 
   4265.60599   8.6062e-17 
  4267.138036   8.5022e-17 
  4268.670082   8.1717e-17 
  4270.202128   8.5178e-17 
  4271.734174   7.9456e-17 
   4273.26622   7.9493e-17 
  4274.798266   9.2527e-17 
  4276.330312   8.5677e-17 
  4277.862358   8.6418e-17 
  4279.394404   8.6589e-17 
   4280.92645   8.2368e-17 
  4282.458496   7.8126e-17 
  4283.990542   9.1529e-17 
  4285.522588     9.53e-17 
  4287.054634   8.1351e-17 
   4288.58668   8.3235e-17 
  4290.118726   7.5229e-17 
  4291.650772   8.2897e-17 
  4293.182818   9.1525e-17 
  4294.714864   8.4527e-17 
   4296.24691   8.4997e-17 
  4297.778956   9.3363e-17 
  4299.311002   8.4445e-17 
  4300.843048   8.0859e-17 
  4302.375094   7.1957e-17 
   4303.90714   7.7943e-17 
  4305.439186   8.6358e-17 
  4306.971232   8.7764e-17 
  4308.503278   8.4644e-17 
  4310.035324   8.7575e-17 
   4311.56737   8.6748e-17 
  4313.099416   8.4497e-17 
  4314.631462   8.8217e-17 
  4316.163508   8.9497e-17 
  4317.695554   8.1561e-17 
    4319.2276   7.8877e-17 
  4320.759646   6.7973e-17 
  4322.291692   7.7789e-17 
  4323.823738    9.647e-17 
  4325.355784    8.302e-17 
   4326.88783   8.7765e-17 
  4328.419876   9.0835e-17 
  4329.951922   9.4443e-17 
  4331.483968   8.3593e-17 
  4333.016014   8.6828e-17 
   4334.54806   9.1562e-17 
  4336.080106    8.388e-17 
  4337.612152   7.8971e-17 
  4339.144198   7.9196e-17 
  4340.676244   8.1039e-17 
   4342.20829   7.5096e-17 
  4343.740336   7.8083e-17 
  4345.272382   8.9202e-17 
  4346.804428    8.758e-17 
  4348.336474   8.6047e-17 
   4349.86852   7.6755e-17 
  4351.400566   8.4339e-17 
  4352.932612   8.9329e-17 
  4354.464658   6.7037e-17 
  4355.996704   6.8945e-17 
   4357.52875   8.5578e-17 
  4359.060796   7.3954e-17 
  4360.592842   8.3362e-17 
  4362.124888   8.1956e-17 
  4363.656934    9.078e-17 
   4365.18898   7.3412e-17 
  4366.721026   6.5062e-17 
  4368.253072   8.6698e-17 
  4369.785118   8.3945e-17 
  4371.317164   9.3317e-17 
   4372.84921   7.9432e-17 
  4374.381256   6.6346e-17 
  4375.913302   6.5639e-17 
  4377.445348   8.2718e-17 
  4378.977394   9.5927e-17 
   4380.50944   9.3699e-17 
  4382.041486   8.8739e-17 
  4383.573532   7.9286e-17 
  4385.105578   8.1199e-17 
  4386.637624   8.4189e-17 
   4388.16967   8.8425e-17 
  4389.701716   7.0139e-17 
  4391.233762   7.1857e-17 
  4392.765808   7.9647e-17 
  4394.297854   8.1144e-17 
    4395.8299   7.8531e-17 
  4397.361946   8.4554e-17 
  4398.893992   7.7114e-17 
  4400.426038   7.3296e-17 
  4401.958084   8.8994e-17 
   4403.49013   7.3374e-17 
  4405.022176   8.2454e-17 
  4406.554222    9.003e-17 
  4408.086268   7.5725e-17 
  4409.618314   7.8695e-17 
   4411.15036   7.0271e-17 
  4412.682406   8.4283e-17 
  4414.214452    7.909e-17 
  4415.746498   9.6579e-17 
  4417.278544   8.8541e-17 
   4418.81059   8.1982e-17 
  4420.342636     7.64e-17 
  4421.874682   7.3698e-17 
  4423.406728   7.4964e-17 
  4424.938774   7.7933e-17 
   4426.47082   7.6656e-17 
  4428.002866   7.8571e-17 
  4429.534912   7.4633e-17 
  4431.066958   8.5639e-17 
  4432.599004   9.8152e-17 
   4434.13105   7.8295e-17 
  4435.663096   7.5762e-17 
  4437.195142   7.7508e-17 
  4438.727188    8.595e-17 
  4440.259234   6.5543e-17 
   4441.79128   8.0519e-17 
  4443.323326   7.3238e-17 
  4444.855372   7.4826e-17 
  4446.387418   8.4295e-17 
  4447.919464   8.4219e-17 
   4449.45151   8.9219e-17 
  4450.983556   8.7983e-17 
  4452.515602    8.984e-17 
  4454.047648   1.0583e-16 
  4455.579694   8.3951e-17 
   4457.11174   8.7515e-17 
  4458.643786   8.5861e-17 
  4460.175832   8.4999e-17 
  4461.707878   8.3907e-17 
  4463.239924   7.3499e-17 
   4464.77197   8.2847e-17 
  4466.304016   7.6771e-17 
  4467.836062   7.3955e-17 
  4469.368108   8.3491e-17 
