# STATUS =
# OBJECT = 2018kyt
# TELESCOPE = P200
# INSTRUMENT = SEDM
# DATE-OBS = 2019-03-15 00:00:00.000
# MJD = 58557.0
# EXPTIME =
# AIRMASS =
# SLIT =
# DISPERSER =
# SOURCE = DOI 10.3847/1538-4357/aca161
# FILTER =
# RESOLUTION =
# FLUX_STANDARD =
# EXTINCTION_CORRECTED =
# PHOTOMETRY_CALIBRATED =
# TELLURIC_CORRECTED =
# FLUX_UNITS =
# WAVE_UNITS =
# QUALITY =
# MIN_WAVE = 3299.8
# MAX_WAVE = 9199.8
# COMMENT =
 Wavelength         Flux 
     3300.8   4.0775e-17 
     3301.8   4.8993e-17 
     3302.8   6.8161e-17 
     3303.8   5.5014e-17 
     3304.8   4.2805e-17 
     3305.8   4.0639e-17 
     3306.8   1.9979e-17 
     3307.8   1.0016e-17 
     3308.8    7.473e-17 
     3309.8   1.2975e-16 
     3310.8   5.2465e-17 
     3311.8   1.0136e-17 
     3312.8   1.7639e-19 
     3313.8  -3.7428e-18 
     3314.8   2.0107e-18 
     3315.8   7.3141e-17 
     3316.8   7.2108e-17 
     3317.8  -4.8955e-18 
     3318.8   2.6454e-18 
     3319.8   3.7519e-17 
     3320.8   7.7526e-17 
     3321.8   1.0216e-16 
     3322.8   9.4578e-17 
     3323.8   5.3386e-17 
     3324.8   5.0633e-17 
     3325.8   1.0202e-16 
     3326.8   8.8616e-17 
     3327.8   5.7649e-17 
     3328.8   6.7192e-17 
     3329.8   7.3652e-17 
     3330.8   5.3876e-17 
     3331.8  -7.4156e-19 
     3332.8   3.7886e-17 
     3333.8   8.7191e-17 
     3334.8   8.4669e-17 
     3335.8   6.2049e-17 
     3336.8   5.5734e-17 
     3337.8   7.7195e-17 
     3338.8   1.0042e-16 
     3339.8   7.5147e-17 
     3340.8   5.5186e-17 
     3341.8   2.9217e-17 
     3342.8   3.5541e-17 
     3343.8   6.8799e-17 
     3344.8   4.9192e-17 
     3345.8   3.6315e-17 
     3346.8  -2.3223e-17 
     3347.8   -1.004e-17 
     3348.8   4.9699e-17 
     3349.8   8.0151e-17 
     3350.8   7.1348e-17 
     3351.8   4.6984e-17 
     3352.8   4.1177e-17 
     3353.8   5.9857e-17 
     3354.8   1.0164e-16 
     3355.8   8.0904e-17 
     3356.8   4.1638e-17 
     3357.8   5.6149e-17 
     3358.8   1.2475e-17 
     3359.8   1.5893e-17 
     3360.8   5.8263e-17 
     3361.8   5.3427e-17 
     3362.8   1.1668e-17 
     3363.8  -1.6972e-17 
     3364.8   2.3812e-17 
     3365.8   4.4437e-17 
     3366.8   3.7323e-17 
     3367.8   3.5538e-17 
     3368.8   9.3162e-18 
     3369.8   -2.758e-17 
     3370.8    4.472e-17 
     3371.8   7.1716e-17 
     3372.8   5.0386e-17 
     3373.8    9.332e-17 
     3374.8   8.3415e-17 
     3375.8    5.002e-17 
     3376.8   2.9866e-17 
     3377.8   6.2333e-17 
     3378.8   7.9054e-17 
     3379.8   8.1196e-17 
     3380.8   5.6057e-17 
     3381.8   3.8845e-17 
     3382.8   5.5626e-17 
     3383.8   4.0004e-17 
     3384.8    6.071e-18 
     3385.8   3.9428e-17 
     3386.8   2.5329e-17 
     3387.8   1.6752e-17 
     3388.8   5.5067e-17 
     3389.8   6.0814e-17 
     3390.8   5.3199e-17 
     3391.8   2.7654e-17 
     3392.8   2.2759e-17 
     3393.8   3.5309e-17 
     3394.8    5.581e-17 
     3395.8   5.9179e-17 
     3396.8   5.6748e-17 
     3397.8   5.8854e-17 
     3398.8    7.284e-17 
     3399.8   7.5703e-17 
     3400.8   6.8386e-17 
     3401.8   5.7365e-17 
     3402.8    5.416e-17 
     3403.8  -5.2848e-18 
     3404.8   2.0011e-17 
     3405.8   5.9092e-17 
     3406.8   6.3533e-17 
     3407.8   6.1365e-17 
     3408.8   5.6897e-17 
     3409.8   5.6662e-17 
     3410.8   5.7996e-17 
     3411.8    7.466e-17 
     3412.8   1.1011e-16 
     3413.8   1.0206e-16 
     3414.8   5.3553e-17 
     3415.8   4.6049e-17 
     3416.8   5.0213e-17 
     3417.8   5.1258e-17 
     3418.8   4.5546e-17 
     3419.8   7.8024e-17 
     3420.8   7.9364e-17 
     3421.8   3.9713e-17 
     3422.8   6.0547e-18 
     3423.8  -2.9716e-19 
     3424.8   3.9634e-18 
     3425.8   3.1155e-17 
     3426.8   7.4584e-17 
     3427.8   8.5381e-17 
     3428.8   3.1383e-17 
     3429.8   1.0276e-17 
     3430.8   4.2373e-17 
     3431.8   5.3768e-17 
     3432.8    1.585e-17 
     3433.8   4.4362e-17 
     3434.8   2.0045e-17 
     3435.8    1.723e-17 
     3436.8   2.7366e-17 
     3437.8      2.8e-17 
     3438.8   3.6393e-17 
     3439.8   5.0549e-17 
     3440.8   4.9362e-17 
     3441.8   2.7009e-17 
     3442.8  -2.7628e-18 
     3443.8  -4.5657e-18 
     3444.8   5.3555e-17 
     3445.8   4.3665e-17 
     3446.8   2.8951e-17 
     3447.8   6.0327e-17 
     3448.8   6.3672e-17 
     3449.8   1.6243e-17 
     3450.8   4.4087e-17 
     3451.8    4.252e-17 
     3452.8   4.9398e-17 
     3453.8   4.9651e-17 
     3454.8   1.9366e-17 
     3455.8   1.2648e-17 
     3456.8    4.432e-17 
     3457.8   4.7796e-17 
     3458.8   4.5058e-17 
     3459.8   7.7028e-17 
     3460.8   7.8331e-17 
     3461.8   7.4028e-17 
     3462.8   8.5144e-17 
     3463.8   6.5591e-17 
     3464.8   3.7552e-17 
     3465.8   5.8083e-17 
     3466.8     5.39e-17 
     3467.8   6.4618e-17 
     3468.8   6.0031e-17 
     3469.8   3.7808e-17 
     3470.8   3.8625e-17 
     3471.8   4.3903e-17 
     3472.8   4.2804e-17 
     3473.8   8.4065e-17 
     3474.8   5.7233e-17 
     3475.8   5.2919e-17 
     3476.8   1.0751e-17 
     3477.8   4.1883e-17 
     3478.8    4.454e-17 
     3479.8   3.7395e-17 
     3480.8   3.7256e-17 
     3481.8   7.5821e-17 
     3482.8   4.8301e-17 
     3483.8   1.6417e-17 
     3484.8   5.2424e-17 
     3485.8   6.1608e-17 
     3486.8   9.4457e-18 
     3487.8   1.3586e-17 
     3488.8   2.0235e-17 
     3489.8   1.7907e-17 
     3490.8   5.1915e-17 
     3491.8   4.4117e-17 
     3492.8   3.9332e-17 
     3493.8    3.416e-17 
     3494.8   2.1655e-17 
     3495.8    3.384e-17 
     3496.8   3.6301e-17 
     3497.8   6.4141e-17 
     3498.8    8.095e-17 
     3499.8   5.0224e-17 
     3500.8   4.4743e-17 
     3501.8   7.3867e-17 
     3502.8   9.8793e-17 
     3503.8   9.9008e-17 
     3504.8   3.1036e-17 
     3505.8   2.3557e-17 
     3506.8   6.2634e-17 
     3507.8   2.9746e-17 
     3508.8   3.9853e-17 
     3509.8   5.4841e-17 
     3510.8   3.5443e-17 
     3511.8   4.3532e-17 
     3512.8   5.2138e-17 
     3513.8   4.4747e-17 
     3514.8    3.196e-17 
     3515.8   3.3052e-18 
     3516.8  -5.1182e-18 
     3517.8   -1.066e-17 
     3518.8   2.7342e-17 
     3519.8   3.5565e-17 
     3520.8   3.0404e-17 
     3521.8     1.19e-17 
     3522.8   1.5379e-17 
     3523.8   6.4721e-17 
     3524.8   7.1762e-17 
     3525.8   3.5847e-17 
     3526.8   4.1515e-18 
     3527.8   3.0928e-17 
     3528.8   6.2513e-17 
     3529.8   5.2378e-17 
     3530.8   5.4063e-17 
     3531.8   6.3725e-17 
     3532.8    4.588e-17 
     3533.8   3.9862e-17 
     3534.8   1.3696e-17 
     3535.8   3.1847e-17 
     3536.8   8.0337e-17 
     3537.8   6.1643e-17 
     3538.8   7.1291e-17 
     3539.8   5.9567e-17 
     3540.8   6.5724e-17 
     3541.8   6.5773e-17 
     3542.8   3.8336e-17 
     3543.8   3.7472e-17 
     3544.8   6.0031e-17 
     3545.8   4.7815e-17 
     3546.8   5.9335e-17 
     3547.8   4.9851e-17 
     3548.8   4.4048e-17 
     3549.8   3.3727e-17 
     3550.8   3.2182e-17 
     3551.8   4.5323e-17 
     3552.8   7.3715e-17 
     3553.8    8.312e-17 
     3554.8   7.8981e-17 
     3555.8   5.4512e-17 
     3556.8   4.3464e-17 
     3557.8   4.4358e-17 
     3558.8   3.2741e-17 
     3559.8   3.0015e-18 
     3560.8   3.4529e-17 
     3561.8   7.1883e-17 
     3562.8    4.611e-17 
     3563.8   3.3063e-17 
     3564.8   6.1747e-17 
     3565.8   5.2192e-17 
     3566.8   6.4332e-17 
     3567.8   8.3363e-17 
     3568.8   6.6344e-17 
     3569.8    7.683e-17 
     3570.8   8.0598e-17 
     3571.8   4.8439e-17 
     3572.8   3.1217e-17 
     3573.8   5.9892e-17 
     3574.8   7.9237e-17 
     3575.8   4.3617e-17 
     3576.8    4.461e-17 
     3577.8   1.0128e-17 
     3578.8   1.6645e-17 
     3579.8    3.081e-17 
     3580.8   3.0873e-17 
     3581.8   4.7946e-17 
     3582.8    4.644e-17 
     3583.8   3.0195e-17 
     3584.8   3.4429e-17 
     3585.8    6.162e-17 
     3586.8   5.5013e-17 
     3587.8   2.3565e-17 
     3588.8   2.8746e-17 
     3589.8   5.7267e-17 
     3590.8   5.3517e-17 
     3591.8   6.6471e-17 
     3592.8   7.5159e-17 
     3593.8   3.9281e-17 
     3594.8   3.3758e-17 
     3595.8   8.1759e-17 
     3596.8   8.1199e-17 
     3597.8   6.2814e-17 
     3598.8   5.9028e-17 
     3599.8   6.1817e-17 
     3600.8   5.4393e-17 
     3601.8   2.2509e-17 
     3602.8    1.759e-17 
     3603.8   5.4317e-17 
     3604.8     6.22e-17 
     3605.8   5.4748e-17 
     3606.8   7.9398e-17 
     3607.8   3.1256e-17 
     3608.8   5.3585e-17 
     3609.8   7.5472e-17 
     3610.8   6.2026e-17 
     3611.8   5.7548e-17 
     3612.8   9.1029e-17 
     3613.8    9.449e-17 
     3614.8   6.5824e-17 
     3615.8   6.0814e-17 
     3616.8   6.3666e-17 
     3617.8   5.6681e-17 
     3618.8   5.6005e-17 
     3619.8   3.0009e-17 
     3620.8   4.6419e-17 
     3621.8   5.4799e-17 
     3622.8    6.776e-17 
     3623.8   2.6445e-17 
     3624.8   1.7286e-17 
     3625.8   5.4686e-17 
     3626.8   4.5252e-17 
     3627.8   4.5231e-17 
     3628.8   6.2275e-17 
     3629.8   8.9358e-17 
     3630.8   8.2278e-17 
     3631.8   4.5156e-17 
     3632.8   3.8964e-17 
     3633.8   4.5312e-17 
     3634.8   3.9057e-17 
     3635.8   7.6271e-17 
     3636.8   6.3498e-17 
     3637.8   5.4318e-17 
     3638.8   4.2739e-17 
     3639.8   5.6433e-17 
     3640.8   7.5836e-17 
     3641.8   6.0906e-17 
     3642.8   4.5593e-17 
     3643.8   3.2854e-17 
     3644.8   4.7417e-17 
     3645.8   6.3301e-17 
     3646.8   5.9932e-17 
     3647.8   6.0066e-17 
     3648.8   5.0129e-17 
     3649.8   7.2758e-17 
     3650.8   7.6575e-17 
     3651.8   8.9312e-17 
     3652.8   7.0695e-17 
     3653.8   6.4454e-17 
     3654.8   6.2907e-17 
     3655.8   1.1363e-16 
     3656.8   1.0798e-16 
     3657.8   5.0171e-17 
     3658.8   3.3523e-17 
     3659.8   3.7972e-17 
     3660.8    5.765e-17 
     3661.8   7.8036e-17 
     3662.8   7.5134e-17 
     3663.8   8.1078e-17 
     3664.8   6.1457e-17 
     3665.8   7.4743e-17 
     3666.8   3.8618e-17 
     3667.8   4.3744e-17 
     3668.8   9.0762e-17 
     3669.8   7.0653e-17 
     3670.8   6.0042e-17 
     3671.8   2.8084e-17 
     3672.8    3.284e-17 
     3673.8   3.7834e-17 
     3674.8    3.498e-17 
     3675.8   3.7919e-17 
     3676.8   5.3851e-17 
     3677.8   6.9568e-17 
     3678.8   5.3706e-17 
     3679.8   5.1019e-17 
     3680.8   6.3725e-17 
     3681.8   3.0183e-17 
     3682.8   5.7163e-17 
     3683.8   4.5405e-17 
     3684.8   2.4797e-17 
     3685.8   3.0448e-17 
     3686.8   3.5421e-17 
     3687.8   4.2621e-17 
     3688.8   3.6242e-17 
     3689.8   3.1038e-17 
     3690.8   4.4015e-17 
     3691.8   5.5373e-17 
     3692.8   6.7651e-17 
     3693.8   5.6015e-17 
     3694.8   7.2631e-17 
     3695.8   4.9331e-17 
     3696.8   5.5726e-17 
     3697.8   3.3946e-17 
     3698.8   3.1807e-17 
     3699.8   4.7238e-17 
     3700.8   6.4262e-17 
     3701.8   5.4455e-17 
     3702.8   5.9956e-17 
     3703.8   6.3487e-17 
     3704.8   5.2448e-17 
     3705.8   5.1183e-17 
     3706.8   6.0205e-17 
     3707.8   7.1692e-17 
     3708.8   5.7748e-17 
     3709.8   6.1254e-17 
     3710.8    6.166e-17 
     3711.8   5.0508e-17 
     3712.8   7.5919e-17 
     3713.8   6.1214e-17 
     3714.8   6.3481e-17 
     3715.8   5.1109e-17 
     3716.8   5.0382e-17 
     3717.8   6.5059e-17 
     3718.8   6.6809e-17 
     3719.8    5.668e-17 
     3720.8   5.6754e-17 
     3721.8   7.0549e-17 
     3722.8   7.5089e-17 
     3723.8   5.6788e-17 
     3724.8   4.2046e-17 
     3725.8   5.4361e-17 
     3726.8   6.0501e-17 
     3727.8   4.7525e-17 
     3728.8   5.3323e-17 
     3729.8   6.3516e-17 
     3730.8   7.6289e-17 
     3731.8   7.3487e-17 
     3732.8   6.0008e-17 
     3733.8   5.7978e-17 
     3734.8   6.0304e-17 
     3735.8   6.0355e-17 
     3736.8   7.0148e-17 
     3737.8   6.8289e-17 
     3738.8   7.6869e-17 
     3739.8    7.803e-17 
     3740.8   7.7891e-17 
     3741.8   6.4141e-17 
     3742.8   5.4828e-17 
     3743.8   7.0708e-17 
     3744.8   5.2744e-17 
     3745.8   6.2298e-17 
     3746.8   6.4849e-17 
     3747.8   7.0525e-17 
     3748.8   7.5675e-17 
     3749.8   6.5691e-17 
     3750.8   6.2026e-17 
     3751.8   3.3426e-17 
     3752.8   3.5086e-17 
     3753.8   5.9642e-17 
     3754.8   9.1132e-17 
     3755.8   8.1637e-17 
     3756.8   4.0671e-17 
     3757.8   7.7826e-17 
     3758.8   5.5247e-17 
     3759.8   5.3012e-17 
     3760.8   6.0071e-17 
     3761.8   6.8437e-17 
     3762.8   7.1762e-17 
     3763.8   7.8364e-17 
     3764.8   8.7909e-17 
     3765.8   6.8404e-17 
     3766.8    5.423e-17 
     3767.8   5.9469e-17 
     3768.8   4.6258e-17 
     3769.8   2.5509e-17 
     3770.8   4.4801e-17 
     3771.8   5.1275e-17 
     3772.8   5.8065e-17 
     3773.8   6.8757e-17 
     3774.8   5.9428e-17 
     3775.8   6.6311e-17 
     3776.8   5.6488e-17 
     3777.8   3.4778e-17 
     3778.8   3.3297e-17 
     3779.8   3.6909e-17 
     3780.8   6.3823e-17 
     3781.8   8.0981e-17 
     3782.8   6.0338e-17 
     3783.8   6.5915e-17 
     3784.8   6.5928e-17 
     3785.8   4.7211e-17 
     3786.8   5.4612e-17 
     3787.8   7.6453e-17 
     3788.8   8.8705e-17 
     3789.8   6.1028e-17 
     3790.8   4.6804e-17 
     3791.8   6.0008e-17 
     3792.8   6.0947e-17 
     3793.8   4.2421e-17 
     3794.8   5.8257e-17 
     3795.8   5.7697e-17 
     3796.8   4.2837e-17 
     3797.8   7.7751e-17 
     3798.8   6.6635e-17 
     3799.8   5.6129e-17 
     3800.8   5.0609e-17 
     3801.8   5.8158e-17 
     3802.8   6.0935e-17 
     3803.8   6.7541e-17 
     3804.8   6.6635e-17 
     3805.8   6.6879e-17 
     3806.8   7.2044e-17 
     3807.8   7.2542e-17 
     3808.8   6.3238e-17 
     3809.8   5.5203e-17 
     3810.8   6.6317e-17 
     3811.8   8.9045e-17 
     3812.8   6.6298e-17 
     3813.8   7.0179e-17 
     3814.8   3.9962e-17 
     3815.8   7.1965e-17 
     3816.8   6.7064e-17 
     3817.8   5.9805e-17 
     3818.8   5.9729e-17 
     3819.8    5.311e-17 
     3820.8   6.0518e-17 
     3821.8   6.9574e-17 
     3822.8   5.7116e-17 
     3823.8   4.5048e-17 
     3824.8   4.3933e-17 
     3825.8   6.7198e-17 
     3826.8   6.7185e-17 
     3827.8   5.7636e-17 
     3828.8   7.4539e-17 
     3829.8   5.4424e-17 
     3830.8   4.9798e-17 
     3831.8   5.1166e-17 
     3832.8   4.9564e-17 
     3833.8   7.9303e-17 
     3834.8   8.4013e-17 
     3835.8   6.0849e-17 
     3836.8    6.021e-17 
     3837.8   6.3614e-17 
     3838.8   4.5774e-17 
     3839.8   5.4775e-17 
     3840.8   6.0037e-17 
     3841.8   6.1938e-17 
     3842.8   4.8961e-17 
     3843.8   3.5686e-17 
     3844.8   7.1604e-17 
     3845.8   4.8602e-17 
     3846.8   6.3261e-17 
     3847.8   7.8684e-17 
     3848.8    5.362e-17 
     3849.8   4.2818e-17 
     3850.8   5.6972e-17 
     3851.8    7.037e-17 
     3852.8   6.9534e-17 
     3853.8    4.903e-17 
     3854.8   4.7248e-17 
     3855.8   6.2124e-17 
     3856.8   7.1263e-17 
     3857.8   5.3122e-17 
     3858.8   6.6739e-17 
     3859.8    6.711e-17 
     3860.8   6.6009e-17 
     3861.8   7.5262e-17 
     3862.8    7.655e-17 
     3863.8   8.0413e-17 
     3864.8   8.0133e-17 
     3865.8   7.6079e-17 
     3866.8   6.8501e-17 
     3867.8    5.347e-17 
     3868.8   5.4619e-17 
     3869.8   6.3562e-17 
     3870.8   5.8755e-17 
     3871.8   6.6879e-17 
     3872.8    7.357e-17 
     3873.8     6.46e-17 
     3874.8   5.6796e-17 
     3875.8   3.9987e-17 
     3876.8   3.7263e-17 
     3877.8   3.1028e-17 
     3878.8    4.421e-17 
     3879.8   6.9616e-17 
     3880.8   7.8146e-17 
     3881.8   7.9385e-17 
     3882.8   7.5994e-17 
     3883.8   7.0729e-17 
     3884.8   5.6022e-17 
     3885.8   4.8184e-17 
     3886.8    7.955e-17 
     3887.8   7.3804e-17 
     3888.8   8.1391e-17 
     3889.8   7.6851e-17 
     3890.8    6.405e-17 
     3891.8   6.4566e-17 
     3892.8   8.1676e-17 
     3893.8   7.6608e-17 
     3894.8   5.2508e-17 
     3895.8   5.7757e-17 
     3896.8   8.6675e-17 
     3897.8   8.9261e-17 
     3898.8   8.0783e-17 
     3899.8   6.4415e-17 
     3900.8   5.1975e-17 
     3901.8   5.5387e-17 
     3902.8   7.3721e-17 
     3903.8   8.5538e-17 
     3904.8   8.0756e-17 
     3905.8   6.8231e-17 
     3906.8    5.112e-17 
     3907.8   4.0426e-17 
     3908.8   4.8267e-17 
     3909.8   6.5487e-17 
     3910.8   7.0643e-17 
     3911.8   7.2585e-17 
     3912.8   7.1263e-17 
     3913.8     5.93e-17 
     3914.8   6.4566e-17 
     3915.8   6.0779e-17 
     3916.8   5.8425e-17 
     3917.8   6.6189e-17 
     3918.8   6.1863e-17 
     3919.8   5.8639e-17 
     3920.8   5.2152e-17 
     3921.8   5.5104e-17 
     3922.8   6.9969e-17 
     3923.8   7.4758e-17 
     3924.8   7.1285e-17 
     3925.8   6.7754e-17 
     3926.8   6.6821e-17 
     3927.8   6.4989e-17 
     3928.8   5.1441e-17 
     3929.8   4.2996e-17 
     3930.8   4.4511e-17 
     3931.8   5.4021e-17 
     3932.8   5.9956e-17 
     3933.8   5.7925e-17 
     3934.8   5.9892e-17 
     3935.8   7.2521e-17 
     3936.8    7.484e-17 
     3937.8   7.2752e-17 
     3938.8   6.7672e-17 
     3939.8   5.6201e-17 
     3940.8   5.1569e-17 
     3941.8   5.9538e-17 
     3942.8   7.1449e-17 
     3943.8   7.6979e-17 
     3944.8   6.5092e-17 
     3945.8    7.779e-17 
     3946.8   8.4831e-17 
     3947.8   6.4044e-17 
     3948.8   6.5007e-17 
     3949.8   6.2861e-17 
     3950.8   5.5518e-17 
     3951.8   6.5296e-17 
     3952.8   7.8823e-17 
     3953.8   8.0437e-17 
     3954.8   7.5657e-17 
     3955.8   6.3313e-17 
     3956.8   6.2548e-17 
     3957.8   7.2451e-17 
     3958.8    7.415e-17 
     3959.8   5.3747e-17 
     3960.8   6.2252e-17 
     3961.8   8.8136e-17 
     3962.8   8.2302e-17 
     3963.8   7.0549e-17 
     3964.8   6.1625e-17 
     3965.8   6.1492e-17 
     3966.8   6.4445e-17 
     3967.8   6.4955e-17 
     3968.8   5.7269e-17 
     3969.8   3.7683e-17 
     3970.8   3.9443e-17 
     3971.8   7.7954e-17 
     3972.8   6.5384e-17 
     3973.8   5.5666e-17 
     3974.8   6.5839e-17 
     3975.8   6.1196e-17 
     3976.8   5.9962e-17 
     3977.8   3.9665e-17 
     3978.8   6.6387e-17 
     3979.8   7.1737e-17 
     3980.8    7.339e-17 
     3981.8   7.5134e-17 
     3982.8   6.2061e-17 
     3983.8   4.7258e-17 
     3984.8   5.9683e-17 
     3985.8   7.2044e-17 
     3986.8    7.233e-17 
     3987.8   6.9133e-17 
     3988.8   8.9607e-17 
     3989.8   8.8349e-17 
     3990.8   6.1336e-17 
     3991.8   6.1324e-17 
     3992.8   8.5961e-17 
     3993.8    7.085e-17 
     3994.8   7.1193e-17 
     3995.8   6.2031e-17 
     3996.8   5.5084e-17 
     3997.8   5.5805e-17 
     3998.8   6.2861e-17 
     3999.8   7.0835e-17 
     4000.8   6.3434e-17 
     4001.8   6.4381e-17 
     4002.8   7.0659e-17 
     4003.8   7.9431e-17 
     4004.8   8.3266e-17 
     4005.8   8.7225e-17 
     4006.8   6.6967e-17 
     4007.8   7.8382e-17 
     4008.8   5.2371e-17 
     4009.8   5.3295e-17 
     4010.8   7.7502e-17 
     4011.8   7.4597e-17 
     4012.8   5.3432e-17 
     4013.8   5.5735e-17 
     4014.8   7.7972e-17 
     4015.8   7.8939e-17 
     4016.8   5.8929e-17 
     4017.8   5.1651e-17 
     4018.8   6.8103e-17 
     4019.8   7.3327e-17 
     4020.8   6.8717e-17 
     4021.8   7.3697e-17 
     4022.8   7.6845e-17 
     4023.8   6.2501e-17 
     4024.8   4.8955e-17 
     4025.8   6.0611e-17 
     4026.8   6.6605e-17 
     4027.8   6.0686e-17 
     4028.8   6.6408e-17 
     4029.8   7.6052e-17 
     4030.8   5.5011e-17 
     4031.8   4.9184e-17 
     4032.8    6.412e-17 
     4033.8   5.8431e-17 
     4034.8   6.1248e-17 
     4035.8   6.1672e-17 
     4036.8   6.2275e-17 
     4037.8   8.7359e-17 
     4038.8   8.7173e-17 
     4039.8    6.931e-17 
     4040.8   6.6745e-17 
     4041.8   6.9191e-17 
     4042.8   6.1301e-17 
     4043.8   5.4522e-17 
     4044.8   8.2111e-17 
     4045.8   7.9243e-17 
     4046.8   3.8541e-17 
     4047.8    7.295e-17 
     4048.8   1.0495e-16 
     4049.8   8.9956e-17 
     4050.8   7.4138e-17 
     4051.8   5.8744e-17 
