# STATUS =
# OBJECT = PS112cil
# TELESCOPE = MMT
# INSTRUMENT = Blue_Channel
# DATE-OBS =
# MJD = 56304.3
# EXPTIME = 2700
# AIRMASS = 1.1
# SLIT =
# DISPERSER = 300GPM
# SOURCE = 2018ApJ...852...81L
# FILTER = none
# RESOLUTION =
# FLUX_STANDARD =
# EXTINCTION_CORRECTED = True
# PHOTOMETRY_CALIBRATED =
# TELLURIC_CORRECTED =
# FLUX_UNITS =
# WAVE_UNITS = AA
# QUALITY =
# MIN_WAVE =
# MAX_WAVE =
# COMMENT = Obtained from private comm. with Lunnan
 Wavelength            Flux 
    3312.94     0.028493854 
    3314.88     0.022344929 
    3316.82     0.023763237 
    3318.76     0.026108342 
     3320.7     0.031433786 
    3322.64      0.02124606 
    3324.58     0.030745085 
    3326.52     0.017751627 
    3328.46     0.016716286 
     3330.4     0.022628731 
    3332.34     0.017726763 
    3334.28     0.015923104 
    3336.22     0.014597029 
    3338.16     0.025377194 
     3340.1     0.032499603 
    3342.04     0.029153121 
    3343.98     0.019646265 
    3345.92     0.024974222 
    3347.86      0.02250701 
     3349.8     0.022136767 
    3351.74     0.014902598 
    3353.68     0.017873074 
    3355.62     0.021627035 
    3357.56     0.030814623 
     3359.5     0.028013879 
    3361.44     0.017227738 
    3363.38     0.022518252 
    3365.32     0.025094178 
    3367.26     0.030152164 
     3369.2     0.034179074 
    3371.14     0.031126622 
    3373.08     0.023020929 
    3375.02     0.023441207 
    3376.96     0.022060546 
     3378.9     0.020418819 
    3380.84     0.018417683 
    3382.78     0.017899096 
    3384.72     0.031083885 
    3386.66     0.029403413 
     3388.6     0.020823352 
    3390.54     0.019727761 
    3392.48     0.023622536 
    3394.42     0.022670579 
    3396.36     0.016510487 
     3398.3     0.019218283 
    3400.24     0.025797245 
    3402.18     0.023862797 
    3404.12     0.023149154 
    3406.06      0.01565781 
     3408.0     0.022909705 
    3409.94     0.028720485 
    3411.88     0.022937983 
    3413.82     0.027688495 
    3415.76     0.025913891 
     3417.7     0.024565499 
    3419.64     0.024276184 
    3421.58     0.022626923 
    3423.52     0.023795281 
    3425.46     0.019144793 
     3427.4      0.02596432 
    3429.34     0.023116617 
    3431.28      0.02515935 
    3433.22     0.020986611 
    3435.16     0.020046332 
     3437.1     0.016941786 
    3439.04     0.013847664 
    3440.98     0.020257418 
    3442.92     0.030880524 
    3444.86     0.018156713 
     3446.8     0.015196328 
    3448.74     0.018659208 
    3450.68     0.021669115 
    3452.62     0.019656419 
    3454.56     0.017764766 
     3456.5     0.021295246 
    3458.44     0.025252375 
    3460.38     0.025741257 
    3462.32     0.029261367 
    3464.26     0.018677446 
     3466.2     0.017696874 
    3468.14     0.016644547 
    3470.08     0.010838405 
    3472.02     0.012225664 
    3473.96     0.015472354 
     3475.9     0.018512464 
    3477.84     0.019272264 
    3479.78     0.014898568 
    3481.72     0.012328158 
    3483.66    0.0091275979 
     3485.6     0.010988457 
    3487.54     0.016835746 
    3489.48     0.018749392 
    3491.42     0.014764306 
    3493.36     0.012686515 
     3495.3     0.017825651 
    3497.24     0.013908534 
    3499.18     0.012258318 
    3501.12     0.010211564 
    3503.06    0.0092736171 
     3505.0     0.011012743 
    3506.94    0.0081455878 
    3508.88    0.0070365291 
    3510.82     0.013125121 
    3512.76     0.014859141 
     3514.7     0.013060151 
    3516.64     0.015888622 
    3518.58     0.018401261 
    3520.52     0.016451029 
    3522.46     0.010143501 
     3524.4     0.013545536 
    3526.34       0.0128578 
    3528.28     0.016245955 
    3530.22     0.013103743 
    3532.16    0.0093434695 
     3534.1     0.015050507 
    3536.04     0.016734255 
    3537.98     0.017487414 
    3539.92     0.015340712 
    3541.86     0.011595959 
     3543.8     0.011878418 
    3545.74     0.013228761 
    3547.68     0.014925793 
    3549.62      0.01135285 
    3551.56    0.0080680991 
     3553.5      0.01056296 
    3555.44     0.018135958 
    3557.38      0.01654178 
    3559.32     0.014894123 
    3561.26     0.020475167 
     3563.2     0.019200762 
    3565.14     0.021385394 
    3567.08     0.019894793 
    3569.02     0.014434884 
    3570.96     0.020839042 
     3572.9     0.018066007 
    3574.84     0.010688323 
    3576.78     0.013801778 
    3578.72     0.011585539 
    3580.66     0.012137377 
     3582.6     0.015678751 
    3584.54      0.01690259 
    3586.48     0.017425636 
    3588.42     0.017974927 
    3590.36     0.020197203 
     3592.3     0.021245059 
    3594.24     0.019168545 
    3596.18     0.020148467 
    3598.12     0.020881237 
    3600.06     0.019272842 
     3602.0     0.015577533 
    3603.94     0.017049728 
    3605.88     0.024980955 
    3607.82     0.025421731 
    3609.76     0.018433444 
     3611.7     0.022229413 
    3613.64     0.029134057 
    3615.58     0.023617593 
    3617.52     0.025350277 
    3619.46     0.027498694 
     3621.4     0.027197962 
    3623.34     0.018298268 
    3625.28     0.021136101 
    3627.22     0.024012627 
    3629.16     0.036059407 
     3631.1     0.028221876 
    3633.04      0.01774288 
    3634.98     0.021489966 
    3636.92      0.02047657 
    3638.86     0.018525849 
     3640.8     0.017946342 
    3642.74     0.025874841 
    3644.68     0.030632879 
    3646.62     0.027286941 
    3648.56     0.025131878 
     3650.5     0.020595107 
    3652.44     0.026126564 
    3654.38     0.028295749 
    3656.32      0.02315706 
    3658.26     0.022124534 
     3660.2     0.022619626 
    3662.14     0.025468432 
    3664.08      0.02604388 
    3666.02     0.029423204 
    3667.96     0.025720276 
     3669.9     0.021145956 
    3671.84     0.023136442 
    3673.78     0.030376054 
    3675.72     0.033272858 
    3677.66     0.028783369 
     3679.6     0.032073787 
    3681.54     0.030410602 
    3683.48     0.032192004 
    3685.42     0.027396243 
    3687.36     0.028816224 
     3689.3     0.026853886 
    3691.24     0.035467611 
    3693.18     0.029869667 
    3695.12     0.032713212 
    3697.06      0.02399991 
     3699.0      0.02803915 
    3700.94     0.031157529 
    3702.88      0.02729317 
    3704.82     0.028362979 
    3706.76     0.027491464 
     3708.7     0.029361328 
    3710.64     0.029155488 
    3712.58      0.02493789 
    3714.52     0.031918567 
    3716.46     0.027042718 
     3718.4     0.032311312 
    3720.34     0.024700653 
    3722.28     0.031975882 
    3724.22     0.029747824 
    3726.16       0.0305324 
     3728.1     0.027092335 
    3730.04     0.029749928 
    3731.98     0.028694103 
    3733.92     0.034928974 
    3735.86     0.027401168 
     3737.8     0.019967398 
    3739.74     0.027199698 
    3741.68     0.023494142 
    3743.62      0.02572305 
    3745.56      0.02850965 
     3747.5     0.031136415 
    3749.44     0.032598858 
    3751.38     0.026295282 
    3753.32     0.028739986 
    3755.26     0.024737731 
     3757.2     0.027354163 
    3759.14     0.029220322 
    3761.08     0.028826667 
    3763.02     0.029057778 
    3764.96     0.022770692 
     3766.9     0.027411014 
    3768.84     0.033081827 
    3770.78     0.026998278 
    3772.72     0.018892528 
    3774.66     0.023673267 
     3776.6     0.033460836 
    3778.54     0.030552992 
    3780.48     0.027590442 
    3782.42     0.023786156 
    3784.36     0.024034037 
     3786.3     0.026195537 
    3788.24     0.028497585 
    3790.18     0.027617743 
    3792.12     0.030984515 
    3794.06     0.032605542 
     3796.0     0.030762593 
    3797.94     0.029456443 
    3799.88     0.030906111 
    3801.82     0.029986119 
    3803.76     0.026998321 
     3805.7     0.025524664 
    3807.64     0.021730702 
    3809.58       0.0243819 
    3811.52     0.028182841 
    3813.46     0.027991045 
     3815.4     0.028608475 
    3817.34     0.027978618 
    3819.28     0.023070021 
    3821.22     0.024186009 
    3823.16     0.030628645 
     3825.1     0.033557238 
    3827.04     0.027277282 
    3828.98     0.022884405 
    3830.92     0.028409038 
    3832.86     0.027956887 
     3834.8     0.026700366 
    3836.74     0.027275833 
    3838.68     0.026908568 
    3840.62     0.028689328 
    3842.56     0.024784681 
     3844.5      0.02470931 
    3846.44     0.025963895 
    3848.38     0.022306543 
    3850.32     0.025599887 
    3852.26      0.02640701 
     3854.2     0.025388311 
    3856.14     0.028733995 
    3858.08     0.027853028 
    3860.02     0.025921139 
    3861.96     0.025789618 
     3863.9     0.026765001 
    3865.84     0.031402887 
    3867.78     0.028309861 
    3869.72     0.026509431 
    3871.66     0.027525647 
     3873.6     0.031025415 
    3875.54     0.026340769 
    3877.48     0.023276969 
    3879.42     0.025010129 
    3881.36     0.024164756 
     3883.3     0.026920331 
    3885.24     0.028403389 
    3887.18     0.026537512 
    3889.12     0.025828308 
    3891.06     0.023749967 
     3893.0     0.024086305 
    3894.94     0.023613428 
    3896.88     0.025905382 
    3898.82     0.027582364 
    3900.76     0.021707236 
     3902.7     0.020464009 
    3904.64     0.025587803 
    3906.58     0.026091895 
    3908.52      0.02390143 
    3910.46     0.023158515 
     3912.4     0.023542037 
    3914.34     0.026224107 
    3916.28     0.029264236 
    3918.22     0.022347789 
    3920.16     0.021633234 
     3922.1      0.01932182 
    3924.04     0.021536019 
    3925.98     0.029618656 
    3927.92     0.029203285 
    3929.86     0.023949755 
     3931.8     0.021445423 
    3933.74     0.026430716 
    3935.68     0.025211789 
    3937.62     0.022521767 
    3939.56      0.02319357 
     3941.5     0.020387438 
    3943.44     0.020669894 
    3945.38     0.023198891 
    3947.32     0.024888979 
    3949.26     0.023599143 
     3951.2     0.025468577 
    3953.14     0.023605499 
    3955.08     0.021656877 
    3957.02     0.027464902 
    3958.96     0.026427089 
     3960.9      0.02309529 
    3962.84     0.022381209 
    3964.78     0.026562569 
    3966.72     0.025360164 
    3968.66     0.026144808 
     3970.6     0.023801036 
    3972.54     0.022504217 
    3974.48     0.025194561 
    3976.42     0.023774076 
    3978.36     0.025223308 
     3980.3     0.027330937 
    3982.24     0.025551195 
    3984.18     0.021948683 
    3986.12     0.024205501 
    3988.06      0.02770491 
     3990.0     0.022688479 
    3991.94     0.022510236 
    3993.88     0.021893308 
    3995.82     0.026067559 
    3997.76     0.026527533 
     3999.7     0.022293395 
    4001.64     0.026055039 
    4003.58     0.025431992 
    4005.52     0.020129302 
    4007.46     0.022135662 
     4009.4      0.02676509 
    4011.34     0.026352318 
    4013.28     0.024372373 
    4015.22     0.021491603 
    4017.16     0.022275395 
     4019.1     0.023982954 
    4021.04     0.022367583 
    4022.98     0.021309508 
    4024.92     0.023403418 
    4026.86     0.024162193 
     4028.8     0.021231745 
    4030.74     0.018763046 
    4032.68     0.021604896 
    4034.62     0.026893392 
    4036.56      0.02754824 
     4038.5     0.024699396 
    4040.44     0.023083218 
    4042.38     0.022684341 
    4044.32     0.025567583 
    4046.26     0.029797852 
     4048.2     0.026120231 
    4050.14     0.026317427 
    4052.08     0.025879837 
    4054.02     0.024188058 
    4055.96     0.020957087 
     4057.9      0.02244395 
    4059.84     0.024707935 
    4061.78      0.02491528 
    4063.72     0.026068126 
    4065.66     0.027234807 
     4067.6     0.024482263 
    4069.54     0.023498612 
    4071.48     0.026190771 
    4073.42     0.024768137 
    4075.36     0.022290381 
     4077.3     0.020381788 
    4079.24     0.021245988 
    4081.18     0.021931347 
    4083.12     0.022148447 
    4085.06     0.020784039 
     4087.0     0.022624583 
    4088.94     0.024302229 
    4090.88      0.01980869 
    4092.82     0.024079867 
    4094.76     0.026791723 
     4096.7      0.02419165 
    4098.64     0.029302604 
    4100.58     0.028525835 
    4102.52     0.022235371 
    4104.46     0.021178227 
     4106.4     0.021664471 
    4108.34     0.022293763 
    4110.28       0.0213033 
    4112.22      0.02544325 
    4114.16     0.026717837 
     4116.1     0.020271263 
    4118.04      0.02122278 
    4119.98     0.020155489 
    4121.92     0.019278862 
    4123.86     0.023158827 
     4125.8      0.02001946 
    4127.74     0.017913988 
    4129.68     0.021598502 
    4131.62     0.023458077 
    4133.56     0.020512517 
     4135.5     0.018425766 
    4137.44     0.020511369 
    4139.38     0.021926304 
    4141.32     0.024786078 
    4143.26     0.028230659 
     4145.2     0.025074079 
    4147.14     0.023628451 
    4149.08      0.02479889 
    4151.02     0.020945617 
    4152.96     0.020855953 
     4154.9     0.023713077 
    4156.84     0.022318972 
    4158.78     0.020935144 
    4160.72     0.023535295 
    4162.66     0.020912102 
     4164.6     0.017529138 
    4166.54     0.021310817 
    4168.48     0.024059431 
    4170.42       0.0240921 
    4172.36      0.02239953 
     4174.3     0.023699187 
    4176.24     0.020805274 
    4178.18     0.022055756 
    4180.12     0.023217071 
    4182.06     0.018692397 
     4184.0     0.020713296 
    4185.94     0.021695501 
    4187.88     0.020438833 
    4189.82     0.020957334 
    4191.76     0.019427999 
     4193.7     0.021907012 
    4195.64     0.024053117 
    4197.58     0.019803502 
    4199.52     0.019433663 
    4201.46     0.025665778 
     4203.4      0.02878648 
    4205.34     0.026697697 
    4207.28     0.026157133 
    4209.22     0.022158267 
    4211.16     0.017321883 
     4213.1      0.02274186 
    4215.04     0.024277375 
    4216.98      0.02049688 
    4218.92     0.020615055 
    4220.86     0.023122876 
     4222.8     0.025967707 
    4224.74     0.023408101 
    4226.68     0.023157248 
    4228.62     0.025504845 
    4230.56     0.023906849 
     4232.5      0.02346113 
    4234.44      0.02122175 
    4236.38     0.021679433 
    4238.32     0.022940215 
    4240.26     0.022531499 
     4242.2     0.021853123 
    4244.14     0.022651299 
    4246.08     0.022866099 
    4248.02     0.022043271 
    4249.96     0.025704288 
     4251.9     0.021326506 
    4253.84     0.019787531 
    4255.78     0.022962176 
    4257.72     0.022212857 
    4259.66     0.025344533 
     4261.6     0.026212845 
    4263.54     0.022616161 
    4265.48     0.020346216 
    4267.42     0.020269843 
    4269.36     0.019753812 
     4271.3     0.017708137 
    4273.24     0.017168179 
    4275.18      0.01984202 
    4277.12     0.024471666 
    4279.06     0.025780652 
     4281.0      0.02086938 
    4282.94      0.01934519 
    4284.88     0.019107368 
    4286.82     0.017100652 
    4288.76     0.017891717 
     4290.7      0.01791322 
    4292.64      0.01912313 
    4294.58     0.021499591 
    4296.52     0.021103892 
    4298.46     0.018469801 
     4300.4       0.0168945 
    4302.34       0.0197919 
    4304.28     0.020625851 
    4306.22     0.020809955 
    4308.16     0.022892505 
     4310.1     0.021150278 
    4312.04     0.020505482 
    4313.98     0.023016429 
    4315.92     0.022742537 
    4317.86     0.022755983 
     4319.8     0.023638555 
    4321.74     0.024475669 
    4323.68      0.02312281 
    4325.62     0.021021613 
    4327.56     0.020065455 
     4329.5      0.01858929 
    4331.44     0.021042868 
    4333.38     0.025184605 
    4335.32     0.023014509 
    4337.26     0.022366974 
     4339.2     0.024519067 
    4341.14     0.024001818 
    4343.08     0.021405205 
    4345.02     0.019489723 
    4346.96      0.02160119 
     4348.9     0.021867804 
    4350.84     0.023150054 
    4352.78     0.024748804 
    4354.72     0.022111855 
    4356.66     0.017685165 
     4358.6     0.019823558 
    4360.54     0.021435149 
    4362.48     0.024525106 
    4364.42     0.025241208 
    4366.36     0.024448647 
     4368.3     0.020136584 
    4370.24     0.017188949 
    4372.18      0.02197603 
    4374.12     0.021661706 
    4376.06     0.015072518 
     4378.0     0.018649403 
    4379.94      0.02108806 
    4381.88     0.020477837 
    4383.82     0.022284212 
    4385.76     0.019380931 
     4387.7     0.017004811 
    4389.64     0.020448495 
    4391.58     0.020312069 
    4393.52     0.016276567 
    4395.46     0.016027369 
     4397.4     0.015442574 
    4399.34     0.018231882 
    4401.28     0.020945733 
    4403.22     0.018512158 
    4405.16     0.015639153 
     4407.1      0.01882503 
    4409.04     0.020881874 
    4410.98     0.020441148 
    4412.92     0.021676633 
    4414.86     0.021706814 
     4416.8     0.020922337 
    4418.74     0.023508513 
    4420.68     0.023678689 
    4422.62     0.020528122 
    4424.56     0.019582205 
     4426.5     0.018160794 
    4428.44     0.020621725 
    4430.38     0.022064248 
    4432.32      0.02116869 
    4434.26     0.017220745 
     4436.2     0.015101367 
    4438.14     0.020062861 
    4440.08     0.019540696 
    4442.02     0.020738226 
    4443.96     0.022851759 
     4445.9      0.02067555 
    4447.84     0.020390117 
    4449.78     0.021453587 
    4451.72     0.021812624 
    4453.66     0.020942152 
     4455.6     0.019738816 
    4457.54     0.020750654 
    4459.48      0.02425939 
    4461.42     0.024735103 
    4463.36     0.022255114 
     4465.3     0.022805453 
    4467.24     0.022742446 
    4469.18     0.019150385 
    4471.12     0.022889985 
    4473.06     0.022040138 
     4475.0     0.017795165 
    4476.94     0.019196282 
    4478.88     0.017434184 
    4480.82     0.016676864 
    4482.76     0.019103598 
     4484.7     0.022536671 
    4486.64     0.022129104 
    4488.58        0.018788 
    4490.52     0.019354716 
    4492.46       0.0199475 
     4494.4     0.018534925 
    4496.34      0.01910162 
    4498.28     0.020524676 
    4500.22     0.021206683 
    4502.16     0.020138424 
     4504.1     0.018114143 
    4506.04     0.017859741 
    4507.98     0.021408096 
    4509.92     0.017643081 
    4511.86     0.020783295 
     4513.8     0.025034346 
    4515.74     0.020320403 
    4517.68     0.018448375 
    4519.62     0.017558147 
    4521.56     0.020176502 
     4523.5     0.022387738 
    4525.44     0.021367011 
    4527.38     0.020328768 
    4529.32     0.020147214 
    4531.26     0.019783918 
     4533.2     0.016731934 
    4535.14     0.016765303 
    4537.08     0.018326401 
    4539.02      0.01888924 
    4540.96     0.017824968 
     4542.9     0.018007433 
    4544.84     0.020277921 
    4546.78     0.019262635 
    4548.72     0.019601118 
    4550.66     0.022949048 
     4552.6     0.019667214 
    4554.54     0.018046271 
    4556.48     0.018774082 
    4558.42     0.021411931 
    4560.36     0.023706162 
     4562.3     0.022773041 
    4564.24     0.023959702 
    4566.18     0.023038119 
    4568.12     0.021697417 
    4570.06     0.023146001 
     4572.0     0.019969455 
    4573.94     0.016359174 
    4575.88     0.019030896 
    4577.82     0.021425407 
    4579.76     0.016965206 
     4581.7     0.017118326 
    4583.64     0.020746182 
    4585.58     0.019204797 
    4587.52     0.014529597 
    4589.46     0.017941809 
     4591.4     0.021988348 
    4593.34     0.019445006 
    4595.28     0.020232377 
    4597.22     0.016653483 
    4599.16     0.016219397 
     4601.1     0.017120013 
    4603.04     0.014533072 
    4604.98     0.019323883 
    4606.92     0.020220434 
    4608.86     0.023584232 
     4610.8     0.022244608 
    4612.74     0.018453547 
    4614.68     0.018081016 
    4616.62     0.018338572 
