# STATUS =
# OBJECT = 2019unb
# TELESCOPE = ESO-NTT
# INSTRUMENT = EFOSC2-NTT
# DATE-OBS = 2019-11-27 08:00:05.00
# MJD = 58814.33
# EXPTIME = 0
# AIRMASS =
# SLIT = 0
# DISPERSER =
# SOURCE =
# FILTER =
# RESOLUTION =
# FLUX_STANDARD = True
# EXTINCTION_CORRECTED = True
# PHOTOMETRY_CALIBRATED = True
# TELLURIC_CORRECTED = True
# FLUX_UNITS = Other
# WAVE_UNITS = Angstrom
# COMMENT =
    Wavelength       Flux
3000.000000 nan
3010.000000 nan
3020.000000 nan
3030.000000 nan
3040.000000 nan
3050.000000 nan
3060.000000 nan
3070.000000 nan
3080.000000 nan
3090.000000 nan
3100.000000 nan
3110.000000 nan
3120.000000 nan
3130.000000 nan
3140.000000 nan
3150.000000 nan
3160.000000 nan
3170.000000 nan
3180.000000 nan
3190.000000 nan
3200.000000 nan
3210.000000 nan
3220.000000 nan
3230.000000 nan
3240.000000 nan
3250.000000 nan
3260.000000 nan
3270.000000 nan
3280.000000 nan
3290.000000 nan
3300.000000 nan
3310.000000 nan
3320.000000 nan
3330.000000 nan
3340.000000 nan
3350.000000 nan
3360.000000 nan
3370.000000 nan
3380.000000 nan
3390.000000 nan
3400.000000 nan
3410.000000 nan
3420.000000 nan
3430.000000 nan
3440.000000 2.269132e+00
3450.000000 2.305619e+00
3460.000000 2.342392e+00
3470.000000 2.371121e+00
3480.000000 2.363768e+00
3490.000000 2.342516e+00
3500.000000 2.340247e+00
3510.000000 2.337898e+00
3520.000000 2.319239e+00
3530.000000 2.296811e+00
3540.000000 2.267994e+00
3550.000000 2.253515e+00
3560.000000 2.248812e+00
3570.000000 2.241774e+00
3580.000000 2.255905e+00
3590.000000 2.283122e+00
3600.000000 2.305508e+00
3610.000000 2.306879e+00
3620.000000 2.278249e+00
3630.000000 2.237405e+00
3640.000000 2.176328e+00
3650.000000 2.112150e+00
3660.000000 2.046893e+00
3670.000000 1.991637e+00
3680.000000 1.957346e+00
3690.000000 1.927256e+00
3700.000000 1.891856e+00
3710.000000 1.856951e+00
3720.000000 1.830885e+00
3730.000000 1.793338e+00
3740.000000 1.762083e+00
3750.000000 1.746562e+00
3760.000000 1.738677e+00
3770.000000 1.749869e+00
3780.000000 1.760119e+00
3790.000000 1.786409e+00
3800.000000 1.808950e+00
3810.000000 1.827007e+00
3820.000000 1.831434e+00
3830.000000 1.839016e+00
3840.000000 1.854188e+00
3850.000000 1.859064e+00
3860.000000 1.866280e+00
3870.000000 1.872490e+00
3880.000000 1.883573e+00
3890.000000 1.883341e+00
3900.000000 1.886395e+00
3910.000000 1.896405e+00
3920.000000 1.912236e+00
3930.000000 1.929348e+00
3940.000000 1.938822e+00
3950.000000 1.946698e+00
3960.000000 1.947842e+00
3970.000000 1.946877e+00
3980.000000 1.921277e+00
3990.000000 1.897833e+00
4000.000000 1.872740e+00
4010.000000 1.849617e+00
4020.000000 1.826921e+00
4030.000000 1.802805e+00
4040.000000 1.797184e+00
4050.000000 1.794036e+00
4060.000000 1.799742e+00
4070.000000 1.795898e+00
4080.000000 1.798013e+00
4090.000000 1.798660e+00
4100.000000 1.806165e+00
4110.000000 1.799851e+00
4120.000000 1.782795e+00
4130.000000 1.770730e+00
4140.000000 1.748457e+00
4150.000000 1.723535e+00
4160.000000 1.710755e+00
4170.000000 1.699131e+00
4180.000000 1.693671e+00
4190.000000 1.690726e+00
4200.000000 1.677149e+00
4210.000000 1.666135e+00
4220.000000 1.653558e+00
4230.000000 1.629297e+00
4240.000000 1.607693e+00
4250.000000 1.605475e+00
4260.000000 1.592136e+00
4270.000000 1.584925e+00
4280.000000 1.577522e+00
4290.000000 1.574687e+00
4300.000000 1.570909e+00
4310.000000 1.556786e+00
4320.000000 1.539630e+00
4330.000000 1.532467e+00
4340.000000 1.535620e+00
4350.000000 1.528398e+00
4360.000000 1.540156e+00
4370.000000 1.552496e+00
4380.000000 1.567921e+00
4390.000000 1.578573e+00
4400.000000 1.583254e+00
4410.000000 1.583616e+00
4420.000000 1.580923e+00
4430.000000 1.566304e+00
4440.000000 1.541650e+00
4450.000000 1.518667e+00
4460.000000 1.500126e+00
4470.000000 1.491614e+00
4480.000000 1.493153e+00
4490.000000 1.508321e+00
4500.000000 1.526546e+00
4510.000000 1.548660e+00
4520.000000 1.555169e+00
4530.000000 1.550524e+00
4540.000000 1.539212e+00
4550.000000 1.527695e+00
4560.000000 1.508592e+00
4570.000000 1.493431e+00
4580.000000 1.478776e+00
4590.000000 1.470665e+00
4600.000000 1.468751e+00
4610.000000 1.462698e+00
4620.000000 1.455842e+00
4630.000000 1.453332e+00
4640.000000 1.450511e+00
4650.000000 1.449032e+00
4660.000000 1.449112e+00
4670.000000 1.434353e+00
4680.000000 1.419127e+00
4690.000000 1.395701e+00
4700.000000 1.370243e+00
4710.000000 1.344788e+00
4720.000000 1.321713e+00
4730.000000 1.306651e+00
4740.000000 1.301467e+00
4750.000000 1.297692e+00
4760.000000 1.293921e+00
4770.000000 1.296199e+00
4780.000000 1.298977e+00
4790.000000 1.308048e+00
4800.000000 1.316997e+00
4810.000000 1.321280e+00
4820.000000 1.320013e+00
4830.000000 1.311761e+00
4840.000000 1.304084e+00
4850.000000 1.295126e+00
4860.000000 1.291518e+00
4870.000000 1.285609e+00
4880.000000 1.282357e+00
4890.000000 1.277272e+00
4900.000000 1.276495e+00
4910.000000 1.278341e+00
4920.000000 1.280531e+00
4930.000000 1.283717e+00
4940.000000 1.287329e+00
4950.000000 1.298617e+00
4960.000000 1.310333e+00
4970.000000 1.317329e+00
4980.000000 1.319393e+00
4990.000000 1.324445e+00
5000.000000 1.322480e+00
5010.000000 1.317227e+00
5020.000000 1.308177e+00
5030.000000 1.300060e+00
5040.000000 1.300123e+00
5050.000000 1.294925e+00
5060.000000 1.292975e+00
5070.000000 1.290973e+00
5080.000000 1.285927e+00
5090.000000 1.269997e+00
5100.000000 1.252382e+00
5110.000000 1.238956e+00
5120.000000 1.228107e+00
5130.000000 1.228953e+00
5140.000000 1.230250e+00
5150.000000 1.243993e+00
5160.000000 1.255303e+00
5170.000000 1.259430e+00
5180.000000 1.251702e+00
5190.000000 1.245439e+00
5200.000000 1.235335e+00
5210.000000 1.225761e+00
5220.000000 1.218545e+00
5230.000000 1.209729e+00
5240.000000 1.198075e+00
5250.000000 1.184382e+00
5260.000000 1.168952e+00
5270.000000 1.153811e+00
5280.000000 1.150366e+00
5290.000000 1.140812e+00
5300.000000 1.139118e+00
5310.000000 1.134908e+00
5320.000000 1.130665e+00
5330.000000 1.114495e+00
5340.000000 1.102941e+00
5350.000000 1.090072e+00
5360.000000 1.079860e+00
5370.000000 1.077017e+00
5380.000000 1.072904e+00
5390.000000 1.069813e+00
5400.000000 1.061528e+00
5410.000000 1.052985e+00
5420.000000 1.042939e+00
5430.000000 1.039773e+00
5440.000000 1.035854e+00
5450.000000 1.029754e+00
5460.000000 1.025096e+00
5470.000000 1.022574e+00
5480.000000 1.015964e+00
5490.000000 1.009615e+00
5500.000000 1.002786e+00
5510.000000 9.909501e-01
5520.000000 9.832384e-01
5530.000000 9.768693e-01
5540.000000 9.709175e-01
5550.000000 9.712012e-01
5560.000000 9.759075e-01
5570.000000 9.770421e-01
5580.000000 9.824330e-01
5590.000000 9.829849e-01
5600.000000 9.650780e-01
5610.000000 9.569942e-01
5620.000000 9.450061e-01
5630.000000 9.377505e-01
5640.000000 9.339351e-01
5650.000000 9.274687e-01
5660.000000 9.216863e-01
5670.000000 9.188396e-01
5680.000000 9.150671e-01
5690.000000 9.042966e-01
5700.000000 8.990405e-01
5710.000000 8.960891e-01
5720.000000 8.933468e-01
5730.000000 8.898304e-01
5740.000000 8.831299e-01
5750.000000 8.890871e-01
5760.000000 8.948379e-01
5770.000000 9.035537e-01
5780.000000 9.177735e-01
5790.000000 9.310196e-01
5800.000000 9.470548e-01
5810.000000 9.572559e-01
5820.000000 9.638599e-01
5830.000000 9.659523e-01
5840.000000 9.679292e-01
5850.000000 9.669766e-01
5860.000000 9.613480e-01
5870.000000 9.515734e-01
5880.000000 9.422089e-01
5890.000000 9.256658e-01
5900.000000 9.143616e-01
5910.000000 9.170800e-01
5920.000000 9.054787e-01
5930.000000 9.010254e-01
5940.000000 8.948896e-01
5950.000000 8.913863e-01
5960.000000 8.859313e-01
5970.000000 8.833262e-01
5980.000000 8.754629e-01
5990.000000 8.692090e-01
6000.000000 8.635099e-01
6010.000000 8.524827e-01
6020.000000 8.425517e-01
6030.000000 8.228422e-01
6040.000000 8.093641e-01
6050.000000 7.945096e-01
6060.000000 7.842852e-01
6070.000000 7.807208e-01
6080.000000 7.807605e-01
6090.000000 7.885629e-01
6100.000000 7.980317e-01
6110.000000 7.983107e-01
6120.000000 7.945819e-01
6130.000000 7.914873e-01
6140.000000 7.836593e-01
6150.000000 7.731563e-01
6160.000000 7.669001e-01
6170.000000 7.653708e-01
6180.000000 7.623329e-01
6190.000000 7.576341e-01
6200.000000 7.518790e-01
6210.000000 7.522148e-01
6220.000000 7.504651e-01
6230.000000 7.476123e-01
6240.000000 7.443368e-01
6250.000000 7.472988e-01
6260.000000 7.491502e-01
6270.000000 7.525880e-01
6280.000000 7.511621e-01
6290.000000 7.609563e-01
6300.000000 7.686560e-01
6310.000000 7.715560e-01
6320.000000 7.739206e-01
6330.000000 7.691715e-01
6340.000000 7.626780e-01
6350.000000 7.523969e-01
6360.000000 7.487644e-01
6370.000000 7.434255e-01
6380.000000 7.479949e-01
6390.000000 7.538192e-01
6400.000000 7.630447e-01
6410.000000 7.809402e-01
6420.000000 7.948260e-01
6430.000000 7.891947e-01
6440.000000 7.703106e-01
6450.000000 7.487884e-01
6460.000000 7.729698e-01
6470.000000 8.229384e-01
6480.000000 7.748745e-01
6490.000000 7.974624e-01
6500.000000 8.093262e-01
6510.000000 8.241630e-01
6520.000000 8.276513e-01
6530.000000 8.295052e-01
6540.000000 8.316537e-01
6550.000000 8.407443e-01
6560.000000 8.317440e-01
6570.000000 8.259606e-01
6580.000000 8.184023e-01
6590.000000 8.132738e-01
6600.000000 8.073069e-01
6610.000000 8.015456e-01
6620.000000 7.978029e-01
6630.000000 7.954178e-01
6640.000000 7.931826e-01
6650.000000 7.843776e-01
6660.000000 7.817368e-01
6670.000000 7.747200e-01
6680.000000 7.706711e-01
6690.000000 7.638679e-01
6700.000000 7.601824e-01
6710.000000 7.621948e-01
6720.000000 7.521462e-01
6730.000000 7.396650e-01
6740.000000 7.265975e-01
6750.000000 7.193486e-01
6760.000000 7.170851e-01
6770.000000 7.142373e-01
6780.000000 7.111853e-01
6790.000000 7.074290e-01
6800.000000 6.995215e-01
6810.000000 6.870465e-01
6820.000000 6.857661e-01
6830.000000 6.769130e-01
6840.000000 6.761963e-01
6850.000000 6.729017e-01
6860.000000 6.747232e-01
6870.000000 6.756418e-01
6880.000000 6.728069e-01
6890.000000 6.733709e-01
6900.000000 6.704711e-01
6910.000000 6.633772e-01
6920.000000 6.654567e-01
6930.000000 6.639883e-01
6940.000000 6.581445e-01
6950.000000 6.603519e-01
6960.000000 6.570038e-01
6970.000000 6.536697e-01
6980.000000 6.565389e-01
6990.000000 6.527221e-01
7000.000000 6.486795e-01
7010.000000 6.553998e-01
7020.000000 6.465485e-01
7030.000000 6.369935e-01
7040.000000 6.330053e-01
7050.000000 6.251054e-01
7060.000000 6.147693e-01
7070.000000 6.112581e-01
7080.000000 6.127496e-01
7090.000000 6.084695e-01
7100.000000 6.230558e-01
7110.000000 6.252134e-01
7120.000000 5.746598e-01
7130.000000 5.156515e-01
7140.000000 4.649922e-01
7150.000000 5.500961e-01
7160.000000 5.647192e-01
7170.000000 4.051662e-01
7180.000000 4.631439e-01
7190.000000 5.166017e-01
7200.000000 5.530555e-01
7210.000000 5.573351e-01
7220.000000 5.716792e-01
7230.000000 5.876989e-01
7240.000000 5.857004e-01
7250.000000 5.789173e-01
7260.000000 5.841012e-01
7270.000000 5.872203e-01
7280.000000 5.811307e-01
7290.000000 5.857161e-01
7300.000000 5.895207e-01
7310.000000 5.796584e-01
7320.000000 5.683669e-01
7330.000000 5.650650e-01
7340.000000 5.642736e-01
7350.000000 5.552842e-01
7360.000000 5.498123e-01
7370.000000 5.358629e-01
7380.000000 5.252287e-01
7390.000000 5.248328e-01
7400.000000 5.264517e-01
7410.000000 5.241963e-01
7420.000000 5.184931e-01
7430.000000 5.211510e-01
7440.000000 5.157362e-01
7450.000000 5.097436e-01
7460.000000 5.097658e-01
7470.000000 5.134434e-01
7480.000000 5.191821e-01
7490.000000 5.315151e-01
7500.000000 5.323939e-01
7510.000000 5.298915e-01
7520.000000 5.256374e-01
7530.000000 5.145007e-01
7540.000000 5.048162e-01
7550.000000 5.077954e-01
7560.000000 5.036983e-01
7570.000000 5.013304e-01
7580.000000 4.982727e-01
7590.000000 4.978062e-01
7600.000000 5.043615e-01
7610.000000 4.983136e-01
7620.000000 4.917731e-01
7630.000000 4.966914e-01
7640.000000 4.998463e-01
7650.000000 4.899334e-01
7660.000000 4.776747e-01
7670.000000 4.674493e-01
7680.000000 4.655367e-01
7690.000000 4.733473e-01
7700.000000 4.753394e-01
7710.000000 4.781130e-01
7720.000000 4.765077e-01
7730.000000 4.734559e-01
7740.000000 4.726400e-01
7750.000000 4.707345e-01
7760.000000 4.624416e-01
7770.000000 4.592131e-01
7780.000000 4.671460e-01
7790.000000 4.683151e-01
7800.000000 4.682940e-01
7810.000000 4.617629e-01
7820.000000 4.570450e-01
7830.000000 4.550196e-01
7840.000000 4.533128e-01
7850.000000 4.435119e-01
7860.000000 4.497908e-01
7870.000000 4.587040e-01
7880.000000 4.687159e-01
7890.000000 4.723246e-01
7900.000000 4.740226e-01
7910.000000 4.728529e-01
7920.000000 4.657068e-01
7930.000000 4.653247e-01
7940.000000 4.469495e-01
7950.000000 4.418532e-01
7960.000000 4.365977e-01
7970.000000 4.274516e-01
7980.000000 4.228183e-01
7990.000000 4.135565e-01
8000.000000 4.060868e-01
8010.000000 3.969259e-01
8020.000000 3.961145e-01
8030.000000 3.928888e-01
8040.000000 3.962642e-01
8050.000000 4.002851e-01
8060.000000 4.072328e-01
8070.000000 4.127460e-01
8080.000000 4.028839e-01
8090.000000 4.016404e-01
8100.000000 3.998632e-01
8110.000000 3.957187e-01
8120.000000 3.893033e-01
8130.000000 3.914115e-01
8140.000000 3.966707e-01
8150.000000 4.004024e-01
8160.000000 3.995948e-01
8170.000000 4.030431e-01
8180.000000 4.088995e-01
8190.000000 4.023147e-01
8200.000000 4.066630e-01
8210.000000 4.042562e-01
8220.000000 3.946862e-01
8230.000000 3.799037e-01
8240.000000 3.704433e-01
8250.000000 3.615147e-01
8260.000000 3.596873e-01
8270.000000 3.682034e-01
8280.000000 3.834980e-01
8290.000000 4.041158e-01
8300.000000 4.137759e-01
8310.000000 4.169410e-01
8320.000000 4.123301e-01
8330.000000 3.999950e-01
8340.000000 3.824690e-01
8350.000000 3.730506e-01
8360.000000 3.674862e-01
8370.000000 3.661810e-01
8380.000000 3.668001e-01
8390.000000 3.773496e-01
8400.000000 3.927252e-01
8410.000000 3.949228e-01
8420.000000 3.894177e-01
8430.000000 3.941015e-01
8440.000000 3.867538e-01
8450.000000 3.716865e-01
8460.000000 3.725598e-01
8470.000000 3.743678e-01
8480.000000 3.652246e-01
8490.000000 3.726095e-01
8500.000000 3.737563e-01
8510.000000 3.652446e-01
8520.000000 3.748782e-01
8530.000000 3.646299e-01
8540.000000 3.678459e-01
8550.000000 4.006810e-01
8560.000000 4.296239e-01
8570.000000 4.464547e-01
8580.000000 4.593434e-01
8590.000000 4.535265e-01
8600.000000 4.329064e-01
8610.000000 4.113239e-01
8620.000000 3.744357e-01
8630.000000 3.569845e-01
8640.000000 3.542574e-01
8650.000000 3.654811e-01
8660.000000 3.726707e-01
8670.000000 3.830688e-01
8680.000000 3.926059e-01
8690.000000 nan
8700.000000 nan
8710.000000 nan
8720.000000 nan
8730.000000 nan
8740.000000 nan
8750.000000 nan
8760.000000 nan
8770.000000 nan
8780.000000 nan
8790.000000 nan
8800.000000 nan
8810.000000 nan
8820.000000 nan
8830.000000 nan
8840.000000 nan
8850.000000 nan
8860.000000 nan
8870.000000 nan
8880.000000 nan
8890.000000 nan
8900.000000 nan
8910.000000 nan
8920.000000 nan
8930.000000 nan
8940.000000 nan
8950.000000 nan
8960.000000 nan
8970.000000 nan
8980.000000 nan
8990.000000 nan
