# STATUS =
# OBJECT = 2019ieh
# TELESCOPE = P60
# INSTRUMENT = SEDM
# DATE-OBS = 2019-07-26 07:55:58.00
# MJD = 58690.33053239994
# EXPTIME = 1800
# AIRMASS = --
# SLIT = --
# DISPERSER = --
# SOURCE = --
# FILTER =
# RESOLUTION =
# FLUX_STANDARD =
# EXTINCTION_CORRECTED = --
# PHOTOMETRY_CALIBRATED =
# TELLURIC_CORRECTED =
# FLUX_UNITS = erg cm(-2) sec(-1) Ang(-1)
# WAVE_UNITS = Angstrom
# QUALITY = --
# MIN_WAVE = 3776.7
# MAX_WAVE = 9223.3
# COMMENT = [TNS source group:  48 - ZTF ]
 Wavelength       Flux      Error 
     3802.3  1.351e-15  4.193e-31 
     3827.9  1.655e-15  3.522e-31 
     3853.4   1.86e-15  3.006e-31 
     3879.0  2.405e-15   2.59e-31 
     3904.6   2.08e-15  2.243e-31 
     3930.1   1.68e-15  1.949e-31 
     3955.7  1.903e-15  1.696e-31 
     3981.3  1.532e-15  1.479e-31 
     4006.8  1.558e-15  1.292e-31 
     4032.4  1.731e-15  1.132e-31 
     4058.0  1.296e-15   9.95e-32 
     4083.6  1.273e-15  8.781e-32 
     4109.1  1.442e-15  7.787e-32 
     4134.7  1.747e-15  6.941e-32 
     4160.3  1.816e-15  6.221e-32 
     4185.8   1.77e-15  5.607e-32 
     4211.4  1.703e-15  5.083e-32 
     4237.0  1.537e-15  4.635e-32 
     4262.6  1.772e-15   4.25e-32 
     4288.1  1.496e-15  3.918e-32 
     4313.7  1.572e-15   3.63e-32 
     4339.3  1.422e-15   3.38e-32 
     4364.8  1.406e-15   3.16e-32 
     4390.4  1.172e-15  2.965e-32 
     4416.0  1.188e-15  2.792e-32 
     4441.6  1.397e-15  2.637e-32 
     4467.1  1.441e-15  2.496e-32 
     4492.7  1.493e-15  2.368e-32 
     4518.3  1.825e-15   2.25e-32 
     4543.8  1.771e-15   2.14e-32 
     4569.4  2.035e-15  2.036e-32 
     4595.0  2.125e-15  1.939e-32 
     4620.5  2.202e-15  1.846e-32 
     4646.1  2.155e-15  1.758e-32 
     4671.7   1.77e-15  1.673e-32 
     4697.3  1.841e-15  1.592e-32 
     4722.8  1.577e-15  1.514e-32 
     4748.4  1.469e-15  1.439e-32 
     4774.0  1.499e-15  1.366e-32 
     4799.5  1.441e-15  1.297e-32 
     4825.1  1.473e-15  1.231e-32 
     4850.7  1.367e-15  1.168e-32 
     4876.3  1.477e-15  1.108e-32 
     4901.8  1.594e-15  1.051e-32 
     4927.4  1.843e-15   9.97e-33 
     4953.0  1.635e-15  9.463e-33 
     4978.5  1.614e-15  8.987e-33 
     5004.1  1.595e-15  8.541e-33 
     5029.7   1.35e-15  8.125e-33 
     5055.3  1.336e-15  7.737e-33 
     5080.8  1.281e-15  7.376e-33 
     5106.4  1.289e-15  7.041e-33 
     5132.0  1.534e-15   6.73e-33 
     5157.5  1.548e-15  6.442e-33 
     5183.1  1.689e-15  6.176e-33 
     5208.7   1.69e-15   5.93e-33 
     5234.2   1.74e-15  5.703e-33 
     5259.8  1.826e-15  5.493e-33 
     5285.4  2.018e-15  5.299e-33 
     5311.0  1.996e-15  5.119e-33 
     5336.5  2.057e-15  4.953e-33 
     5362.1  2.098e-15  4.799e-33 
     5387.7  2.142e-15  4.655e-33 
     5413.2  2.176e-15  4.521e-33 
     5438.8  2.225e-15  4.396e-33 
     5464.4  2.414e-15  4.279e-33 
     5490.0  2.623e-15  4.168e-33 
     5515.5  2.665e-15  4.064e-33 
     5541.1  2.764e-15  3.964e-33 
     5566.7  2.946e-15  3.869e-33 
     5592.2  3.014e-15  3.779e-33 
     5617.8   2.87e-15  3.691e-33 
     5643.4  2.811e-15  3.607e-33 
     5668.9  2.638e-15  3.524e-33 
     5694.5  2.575e-15  3.444e-33 
     5720.1  2.524e-15  3.366e-33 
     5745.7  2.376e-15   3.29e-33 
     5771.2   2.29e-15  3.219e-33 
     5796.8  2.211e-15  3.157e-33 
     5822.4  2.206e-15  3.113e-33 
     5847.9   2.16e-15  3.089e-33 
     5873.5  2.191e-15  3.069e-33 
     5899.1  2.077e-15  3.022e-33 
     5924.7  2.096e-15  2.933e-33 
     5950.2   2.02e-15  2.818e-33 
     5975.8  1.951e-15  2.705e-33 
     6001.4  1.931e-15  2.611e-33 
     6026.9  1.858e-15  2.535e-33 
     6052.5  1.769e-15  2.469e-33 
     6078.1  1.667e-15  2.409e-33 
     6103.7  1.815e-15  2.352e-33 
     6129.2  1.764e-15  2.297e-33 
     6154.8  1.767e-15  2.244e-33 
     6180.4  1.841e-15  2.194e-33 
     6205.9  1.777e-15  2.148e-33 
     6231.5  1.689e-15  2.106e-33 
     6257.1  1.615e-15  2.066e-33 
     6282.6  1.677e-15  2.027e-33 
     6308.2  1.591e-15  1.984e-33 
     6333.8  1.579e-15  1.941e-33 
     6359.4  1.663e-15  1.901e-33 
     6384.9   1.74e-15   1.87e-33 
     6410.5  1.836e-15  1.855e-33 
     6436.1  1.993e-15   1.86e-33 
     6461.6   2.08e-15  1.877e-33 
     6487.2  2.172e-15  1.876e-33 
     6512.8  2.184e-15  1.837e-33 
     6538.4   2.14e-15  1.768e-33 
     6563.9  2.118e-15  1.698e-33 
     6589.5   2.16e-15  1.644e-33 
     6615.1  2.208e-15  1.607e-33 
     6640.6  2.179e-15  1.579e-33 
     6666.2  2.161e-15  1.556e-33 
     6691.8  2.176e-15  1.533e-33 
     6717.4  2.176e-15  1.512e-33 
     6742.9  2.133e-15  1.493e-33 
     6768.5  2.113e-15  1.484e-33 
     6794.1  2.055e-15  1.495e-33 
     6819.6  2.034e-15  1.536e-33 
     6845.2  1.981e-15  1.595e-33 
     6870.8  1.838e-15  1.625e-33 
     6896.3    1.8e-15  1.589e-33 
     6921.9  1.743e-15  1.509e-33 
     6947.5  1.665e-15  1.438e-33 
     6973.1  1.672e-15    1.4e-33 
     6998.6  1.696e-15  1.381e-33 
     7024.2  1.674e-15  1.361e-33 
     7049.8  1.647e-15   1.33e-33 
     7075.3  1.621e-15  1.306e-33 
     7100.9  1.612e-15  1.317e-33 
     7126.5  1.618e-15   1.39e-33 
     7152.1  1.591e-15  1.518e-33 
     7177.6  1.542e-15   1.64e-33 
     7203.2  1.493e-15  1.679e-33 
     7228.8  1.462e-15  1.633e-33 
     7254.3  1.432e-15  1.557e-33 
     7279.9  1.385e-15  1.481e-33 
     7305.5  1.442e-15    1.4e-33 
     7331.1  1.537e-15  1.311e-33 
     7356.6  1.587e-15  1.226e-33 
     7382.2  1.623e-15  1.156e-33 
     7407.8  1.587e-15  1.105e-33 
     7433.3  1.581e-15  1.073e-33 
     7458.9  1.637e-15  1.056e-33 
     7484.5  1.698e-15  1.055e-33 
     7510.0  1.767e-15  1.086e-33 
     7535.6  1.672e-15   1.18e-33 
     7561.2  1.578e-15   1.38e-33 
     7586.8  1.529e-15  1.681e-33 
     7612.3  1.394e-15  1.918e-33 
     7637.9  1.292e-15  1.863e-33 
     7663.5  1.313e-15   1.59e-33 
     7689.0  1.417e-15  1.328e-33 
     7714.6   1.51e-15  1.165e-33 
     7740.2  1.545e-15  1.085e-33 
     7765.8  1.574e-15  1.055e-33 
     7791.3  1.639e-15  1.049e-33 
     7816.9  1.684e-15  1.055e-33 
     7842.5  1.725e-15  1.069e-33 
     7868.0  1.765e-15  1.093e-33 
     7893.6  1.735e-15  1.125e-33 
     7919.2  1.721e-15  1.156e-33 
     7944.7   1.77e-15  1.177e-33 
     7970.3  1.744e-15  1.184e-33 
     7995.9  1.708e-15  1.181e-33 
     8021.5  1.719e-15  1.176e-33 
     8047.0  1.654e-15  1.186e-33 
     8072.6  1.536e-15  1.234e-33 
     8098.2  1.449e-15  1.346e-33 
     8123.7  1.353e-15   1.53e-33 
     8149.3  1.205e-15  1.752e-33 
     8174.9  1.074e-15  1.923e-33 
     8200.5  9.351e-16  1.971e-33 
     8226.0  7.902e-16  1.921e-33 
     8251.6  7.203e-16  1.843e-33 
     8277.2  6.906e-16  1.777e-33 
     8302.7  7.053e-16  1.721e-33 
     8328.3  7.362e-16  1.659e-33 
     8353.9  7.378e-16   1.58e-33 
     8379.5  7.555e-16  1.497e-33 
     8405.0  8.196e-16  1.429e-33 
     8430.6  8.385e-16  1.389e-33 
     8456.2  8.608e-16  1.379e-33 
     8481.7  9.593e-16  1.391e-33 
     8507.3  1.059e-15  1.415e-33 
     8532.9  1.142e-15  1.446e-33 
     8558.4  1.261e-15   1.48e-33 
     8584.0  1.391e-15  1.515e-33 
     8609.6  1.526e-15   1.55e-33 
     8635.2  1.637e-15  1.585e-33 
     8660.7  1.702e-15  1.619e-33 
     8686.3  1.764e-15  1.652e-33 
     8711.9  1.816e-15  1.683e-33 
     8737.4  1.825e-15  1.713e-33 
     8763.0   1.83e-15  1.741e-33 
     8788.6  1.851e-15  1.768e-33 
     8814.2  1.838e-15  1.797e-33 
     8839.7  1.773e-15  1.839e-33 
     8865.3  1.687e-15  1.922e-33 
     8890.9  1.617e-15   2.11e-33 
     8916.4  1.626e-15  2.504e-33 
     8942.0  1.703e-15  3.221e-33 
     8967.6  1.698e-15  4.198e-33 
     8993.2  1.627e-15  4.932e-33 
     9018.7  1.531e-15  5.058e-33 
     9044.3   1.46e-15  5.061e-33 
     9069.9  1.452e-15  5.543e-33 
     9095.4  1.465e-15  6.754e-33 
     9121.0  1.549e-15  8.486e-33 
     9146.6  1.651e-15  9.736e-33 
     9172.1  1.592e-15  9.569e-33 
     9197.7  1.459e-15  8.735e-33 
     9223.3    1.4e-15  8.679e-33 
