# STATUS =
# OBJECT = 2020qef
# TELESCOPE = Keck1
# INSTRUMENT = LRIS
# DATE-OBS = 2020-09-20 00:00:00.000
# MJD = 59112.0
# EXPTIME =
# AIRMASS =
# SLIT =
# DISPERSER =
# SOURCE = DOI 10.3847/1538-4357/aca161
# FILTER =
# RESOLUTION =
# FLUX_STANDARD =
# EXTINCTION_CORRECTED =
# PHOTOMETRY_CALIBRATED =
# TELLURIC_CORRECTED =
# FLUX_UNITS =
# WAVE_UNITS =
# QUALITY =
# MIN_WAVE = 3079.4707
# MAX_WAVE = 10302.514
# COMMENT =
 Wavelength          Flux 
  3081.4114  -7.60172e-18 
  3083.3528    9.6708e-17 
  3085.2952   6.26467e-17 
   3087.238   7.93247e-19 
  3089.1816   1.11451e-16 
  3091.1257    1.2239e-17 
  3093.0706   6.32385e-17 
  3095.0161   9.74896e-18 
  3096.9624   3.20268e-18 
  3098.9092   6.26714e-17 
  3100.8567   9.70612e-18 
  3102.8049   4.41071e-18 
  3104.7539      4.22e-17 
  3106.7034   7.37817e-18 
  3108.6536  -5.20429e-17 
  3110.6045   4.31075e-17 
  3112.5559    4.5092e-17 
  3114.5081  -9.08752e-18 
  3116.4607  -4.29615e-17 
  3118.4143   1.46618e-17 
  3120.3684   1.91867e-17 
   3122.323  -2.82466e-17 
  3124.2786  -7.47635e-18 
  3126.2346   2.29229e-17 
  3128.1912    2.6619e-17 
  3130.1484   5.18691e-17 
  3132.1064   4.41943e-18 
  3134.0652  -3.14137e-17 
  3136.0244  -1.20545e-18 
  3137.9841   3.20685e-17 
  3139.9448   1.11454e-17 
   3141.906   1.19888e-17 
  3143.8677   4.03151e-17 
  3145.8301   2.19988e-17 
  3147.7932  -4.31637e-19 
  3149.7568  -3.97307e-17 
  3151.7212   5.69086e-17 
  3153.6863   2.23505e-17 
  3155.6519   5.02391e-17 
  3157.6182   4.02733e-17 
   3159.585  -2.61568e-17 
  3161.5525  -2.26543e-17 
  3163.5205  -2.56902e-18 
  3165.4893   4.87595e-17 
  3167.4585   3.02723e-17 
  3169.4285   7.63243e-18 
  3171.3989   4.07458e-18 
  3173.3701  -3.51489e-18 
   3175.342   6.21634e-18 
  3177.3145   2.73138e-17 
  3179.2876  -7.50602e-18 
  3181.2612   2.55616e-17 
  3183.2354  -9.16844e-19 
  3185.2102   1.04063e-17 
  3187.1858   2.33343e-18 
  3189.1619   4.42312e-18 
  3191.1387   1.93831e-18 
   3193.116   1.14733e-17 
  3195.0938     2.264e-17 
  3197.0723  -2.22875e-18 
  3199.0515    3.1432e-18 
  3201.0312  -8.47447e-18 
  3203.0115  -1.00162e-17 
  3204.9924   1.26573e-17 
  3206.9739   1.38062e-17 
  3208.9561   2.14598e-17 
  3210.9387   3.04997e-17 
  3212.9221   9.27276e-18 
   3214.906   1.23308e-17 
  3216.8904   1.75872e-17 
  3218.8755   8.87687e-18 
  3220.8611   1.08089e-17 
  3222.8474  -1.13942e-17 
  3224.8345   4.56443e-17 
  3226.8218   2.68585e-17 
  3228.8098  -8.22551e-19 
  3230.7983   2.29479e-17 
  3232.7876  -6.74116e-19 
  3234.7773   1.66264e-17 
  3236.7676   2.47295e-17 
  3238.7588   1.85698e-17 
  3240.7502   2.36605e-17 
  3242.7422    3.5541e-18 
  3244.7351  -9.17467e-18 
  3246.7283  -1.48879e-18 
  3248.7219   9.83819e-18 
  3250.7163   2.74377e-17 
  3252.7114  -4.87773e-21 
  3254.7068    1.6359e-17 
  3256.7029   1.95273e-17 
  3258.6997  -7.63709e-19 
   3260.697   2.50677e-17 
  3262.6946  -6.51674e-20 
  3264.6931   1.72098e-17 
  3266.6919   4.72146e-18 
  3268.6914   8.71365e-19 
  3270.6917   1.87458e-17 
  3272.6921    5.5363e-18 
  3274.6934   1.85748e-17 
  3276.6951  -4.81049e-18 
  3278.6975  -7.10667e-18 
  3280.7002   1.81152e-17 
  3282.7036    2.6395e-17 
  3284.7078    2.2334e-17 
  3286.7122   9.77295e-18 
  3288.7173   5.73419e-18 
  3290.7229   1.09921e-17 
   3292.729   9.15925e-18 
  3294.7358   3.67099e-18 
  3296.7432   2.85847e-17 
   3298.751   2.09705e-17 
  3300.7593   1.35527e-17 
  3302.7683   3.29684e-17 
  3304.7776   4.32326e-18 
  3306.7876   1.11452e-17 
  3308.7981   2.73545e-17 
  3310.8091  -4.16843e-18 
  3312.8208    2.2416e-17 
   3314.833   3.31317e-18 
  3316.8457   1.22424e-17 
  3318.8589   9.79593e-18 
  3320.8728   1.34237e-17 
   3322.887   1.51692e-17 
  3324.9019   9.92212e-18 
  3326.9172   9.99687e-18 
  3328.9331   2.20716e-17 
  3330.9495   1.00768e-17 
  3332.9666   2.28987e-17 
  3334.9839   1.33912e-17 
   3337.002   1.52342e-17 
  3339.0205   1.37202e-17 
  3341.0396   1.27266e-17 
  3343.0591   7.26497e-18 
  3345.0793   1.58789e-17 
  3347.0999   9.14009e-18 
  3349.1211   1.99913e-17 
  3351.1426   8.06017e-20 
  3353.1648   6.64055e-18 
  3355.1875   1.61104e-17 
  3357.2107  -2.42059e-18 
  3359.2346   6.51326e-18 
  3361.2588   1.28189e-17 
  3363.2837   1.55011e-18 
  3365.3088   1.03539e-17 
  3367.3347   4.34782e-18 
  3369.3611   2.49995e-17 
  3371.3877  -5.22032e-19 
   3373.415   1.22419e-17 
  3375.4429   6.71978e-18 
  3377.4712   1.72781e-17 
     3379.5   1.18984e-17 
  3381.5293   1.12662e-17 
  3383.5593   6.27056e-18 
  3385.5896   8.94096e-18 
  3387.6206    5.1836e-18 
  3389.6519   1.98249e-18 
  3391.6836   3.69751e-19 
  3393.7161   4.43908e-18 
  3395.7488   4.40034e-18 
  3397.7822   7.98136e-18 
  3399.8159   1.53745e-17 
  3401.8503   1.27798e-18 
  3403.8853   1.00192e-17 
  3405.9204   7.30244e-18 
  3407.9563   1.98509e-17 
  3409.9927   8.84932e-18 
  3412.0293   1.35868e-17 
  3414.0667   1.35747e-17 
  3416.1045   7.99135e-18 
  3418.1426   7.67435e-18 
  3420.1814   5.05474e-18 
  3422.2207   6.61551e-18 
  3424.2603   1.71961e-17 
  3426.3005   1.03837e-17 
  3428.3411   1.32246e-17 
  3430.3823   3.18265e-18 
  3432.4238   1.53724e-17 
  3434.4661   4.24098e-18 
  3436.5085   8.65613e-18 
  3438.5515   1.46249e-17 
  3440.5952   7.37302e-19 
  3442.6392   1.97482e-17 
  3444.6836   1.57875e-17 
  3446.7285   1.85016e-19 
  3448.7739   1.12034e-17 
  3450.8198   9.18412e-18 
  3452.8662   1.67856e-17 
  3454.9131   1.32895e-17 
  3456.9604  -1.35225e-18 
  3459.0083   1.80806e-17 
  3461.0564   1.33321e-17 
   3463.105   2.12217e-17 
  3465.1543   1.77414e-17 
  3467.2039   1.06644e-17 
  3469.2539   1.32102e-17 
  3471.3044   9.63131e-18 
  3473.3555   1.04339e-17 
   3475.407   1.62297e-17 
   3477.459   1.30146e-17 
  3479.5112   1.25249e-17 
  3481.5642    8.9646e-18 
  3483.6174   1.20315e-17 
  3485.6711   1.16461e-17 
  3487.7253   1.59513e-17 
    3489.78   8.90919e-18 
  3491.8352   1.28629e-17 
  3493.8906   1.13589e-17 
  3495.9468   1.66694e-17 
  3498.0032   2.21662e-17 
  3500.0601   1.00313e-17 
  3502.1174   1.15702e-17 
  3504.1753   1.79222e-17 
  3506.2334   9.76825e-18 
  3508.2922    1.7365e-17 
  3510.3513   1.68466e-17 
  3512.4109    9.3376e-18 
  3514.4709   5.01808e-18 
  3516.5312   1.44507e-17 
  3518.5923   1.74539e-17 
  3520.6536   1.51051e-17 
  3522.7153   1.25086e-17 
  3524.7776   7.34318e-18 
  3526.8401   1.38572e-17 
  3528.9033   1.09528e-17 
  3530.9668   1.12107e-17 
  3533.0308   1.50416e-17 
  3535.0952   1.02184e-17 
  3537.1599   1.21536e-17 
  3539.2251   1.13045e-17 
  3541.2908   8.00108e-19 
  3543.3569   2.09167e-17 
  3545.4236    1.3458e-17 
  3547.4905   7.23721e-18 
  3549.5579   1.25978e-17 
  3551.6255   8.95186e-18 
  3553.6938   9.40539e-18 
  3555.7625   1.39339e-17 
  3557.8315   9.38257e-18 
  3559.9011   1.70666e-17 
  3561.9709   1.80402e-17 
  3564.0413   1.99759e-17 
  3566.1121   1.16941e-17 
  3568.1833   5.62828e-18 
  3570.2549   1.28993e-17 
  3572.3269   9.33729e-18 
  3574.3994   1.19007e-17 
  3576.4722    1.1954e-17 
  3578.5454   7.32471e-18 
  3580.6189   1.07489e-17 
  3582.6931   2.05425e-17 
  3584.7676   4.60308e-18 
  3586.8425   8.40349e-18 
  3588.9177   1.27799e-17 
  3590.9934   5.91199e-18 
  3593.0696   9.24164e-18 
  3595.1462   9.56935e-18 
  3597.2231   1.36056e-17 
  3599.3005   3.89145e-18 
  3601.3782   7.88348e-18 
  3603.4563   1.15248e-17 
  3605.5349   1.18058e-17 
   3607.614   6.91253e-18 
  3609.6931   1.64687e-17 
  3611.7729   9.95763e-18 
   3613.853   5.52821e-18 
  3615.9336   1.32701e-17 
  3618.0146   1.05487e-17 
  3620.0959   1.10734e-17 
  3622.1777   7.52949e-18 
  3624.2598    7.9617e-18 
  3626.3423   1.04795e-17 
  3628.4253   1.56482e-17 
  3630.5085   9.98645e-18 
  3632.5923   1.97957e-17 
  3634.6765   1.15158e-17 
  3636.7607   9.81135e-18 
  3638.8457   8.62244e-18 
  3640.9309   1.33402e-17 
  3643.0166   1.17013e-17 
  3645.1028   3.68605e-18 
  3647.1892   9.08689e-18 
  3649.2759    9.0636e-18 
   3651.363   7.95843e-18 
  3653.4507   6.67426e-18 
  3655.5386   1.16685e-17 
   3657.627   1.06637e-17 
  3659.7156   1.24345e-17 
  3661.8047   9.38354e-18 
  3663.8943   1.73664e-17 
  3665.9839   5.78998e-18 
  3668.0742   1.27634e-17 
  3670.1648    1.2344e-17 
  3672.2559   5.11729e-18 
  3674.3472   1.02633e-17 
   3676.439   5.71819e-18 
   3678.531   1.01651e-17 
  3680.6235   1.47264e-17 
  3682.7163   1.65759e-17 
  3684.8096   8.81912e-18 
  3686.9031    1.2809e-17 
  3688.9971   8.50688e-18 
  3691.0913   1.44134e-17 
   3693.186   1.44435e-17 
   3695.281   9.32205e-18 
  3697.3765   1.46008e-17 
  3699.4724   1.45149e-17 
  3701.5686   8.50877e-18 
   3703.665   2.26023e-17 
  3705.7617   8.11268e-18 
  3707.8591    2.1584e-17 
  3709.9568   1.07194e-17 
  3712.0547   1.02347e-17 
  3714.1528   1.70919e-17 
  3716.2517   1.49215e-17 
  3718.3506    8.3193e-18 
    3720.45     1.478e-17 
  3722.5498   1.30986e-17 
  3724.6499   1.65345e-17 
  3726.7502   1.02484e-17 
  3728.8511   1.12166e-17 
  3730.9524   1.46368e-17 
  3733.0537   1.28651e-17 
  3735.1555   9.61919e-18 
  3737.2578    5.5541e-18 
  3739.3604   1.15498e-17 
  3741.4634   1.48871e-17 
  3743.5667   1.19444e-17 
  3745.6702   7.35136e-18 
  3747.7742   1.42765e-17 
  3749.8784   1.58051e-17 
  3751.9832   1.03866e-17 
  3754.0879   1.09537e-17 
  3756.1934   1.27204e-17 
  3758.2991   1.67265e-17 
   3760.405   1.43822e-17 
  3762.5115   1.35469e-17 
  3764.6182   1.79077e-17 
  3766.7251   1.08022e-17 
  3768.8325   1.68686e-17 
  3770.9402    1.1449e-17 
  3773.0483   1.25196e-17 
  3775.1567   1.42668e-17 
  3777.2654   1.56848e-17 
  3779.3745    1.2549e-17 
  3781.4839   1.48529e-17 
  3783.5935   1.29443e-17 
  3785.7036   1.34224e-17 
   3787.814   1.26799e-17 
  3789.9248   1.10989e-17 
  3792.0359   1.33511e-17 
  3794.1472   1.76364e-17 
  3796.2588   1.51207e-17 
  3798.3708    1.6975e-17 
  3800.4834   1.18342e-17 
  3802.5959   1.42275e-17 
   3804.709   1.40485e-17 
  3806.8223   1.36313e-17 
   3808.936   1.34877e-17 
    3811.05   1.20867e-17 
  3813.1643    1.5031e-17 
  3815.2788   1.43938e-17 
  3817.3938   1.39613e-17 
   3819.509   9.79378e-18 
  3821.6248   1.08143e-17 
  3823.7407   1.62883e-17 
  3825.8569   1.58069e-17 
  3827.9734   1.60952e-17 
  3830.0903   1.43637e-17 
  3832.2075   1.24081e-17 
   3834.325   1.13472e-17 
  3836.4429   1.39325e-17 
  3838.5608    6.4832e-18 
  3840.6794   1.81391e-17 
  3842.7981   1.37515e-17 
  3844.9172    1.6057e-17 
  3847.0366   1.06504e-17 
  3849.1562   7.72965e-18 
  3851.2764   1.62826e-17 
  3853.3965   1.25125e-17 
  3855.5171   1.57552e-17 
  3857.6382   9.47773e-18 
  3859.7593   1.63654e-17 
  3861.8809   1.02578e-17 
  3864.0027   1.24226e-17 
   3866.125   1.13672e-17 
  3868.2473   1.56147e-17 
  3870.3701   1.28123e-17 
  3872.4932   1.23132e-17 
  3874.6165   8.85424e-18 
    3876.74   1.24433e-17 
   3878.864    1.6284e-17 
  3880.9883   1.65124e-17 
  3883.1128   1.51791e-17 
  3885.2378   1.14404e-17 
  3887.3628   1.51034e-17 
  3889.4883   1.61938e-17 
   3891.614   1.63566e-17 
    3893.74   1.37213e-17 
  3895.8665   1.64177e-17 
  3897.9932   1.19251e-17 
  3900.1201   1.12965e-17 
  3902.2473   1.33568e-17 
  3904.3748   1.05895e-17 
  3906.5024   1.64961e-17 
  3908.6306    1.6688e-17 
   3910.759   1.41656e-17 
  3912.8877   1.67087e-17 
  3915.0166   1.52142e-17 
  3917.1458   1.33273e-17 
  3919.2754   1.39773e-17 
  3921.4053   1.78224e-17 
  3923.5354   1.42511e-17 
  3925.6658   1.46003e-17 
  3927.7964   1.03939e-17 
  3929.9272   1.49973e-17 
  3932.0586   1.86028e-17 
  3934.1899   1.19123e-17 
  3936.3218   1.72866e-17 
  3938.4539   1.63678e-17 
  3940.5862   1.32295e-17 
   3942.719   1.47602e-17 
  3944.8518   1.44352e-17 
  3946.9851   1.63941e-17 
  3949.1184   1.75843e-17 
  3951.2522   1.41757e-17 
  3953.3862   1.41252e-17 
  3955.5205   1.21149e-17 
   3957.655   1.58662e-17 
    3959.79   1.45685e-17 
   3961.925    1.2214e-17 
  3964.0605    1.1497e-17 
  3966.1963   1.48047e-17 
   3968.332   1.28714e-17 
  3970.4683   1.65877e-17 
  3972.6047   1.36769e-17 
  3974.7415   1.32675e-17 
  3976.8784   1.67208e-17 
  3979.0159   1.40372e-17 
  3981.1533   1.27624e-17 
  3983.2913   1.59137e-17 
  3985.4292   1.15372e-17 
  3987.5676   1.27219e-17 
  3989.7063   1.51854e-17 
  3991.8452   1.51893e-17 
  3993.9841    1.7105e-17 
  3996.1238   1.46191e-17 
  3998.2632   1.31272e-17 
  4000.4033   1.58861e-17 
  4002.5435   1.32942e-17 
  4004.6838   1.23587e-17 
  4006.8247   1.56757e-17 
  4008.9656   1.91122e-17 
  4011.1067   1.65215e-17 
  4013.2483   1.87546e-17 
  4015.3899   1.74625e-17 
   4017.532   1.15116e-17 
  4019.6743   1.74071e-17 
  4021.8167   1.24103e-17 
  4023.9595   1.27481e-17 
  4026.1025   1.96745e-17 
  4028.2456   1.33485e-17 
  4030.3892   1.72208e-17 
   4032.533   1.22752e-17 
   4034.677     1.464e-17 
  4036.8213   1.25937e-17 
  4038.9658   1.91312e-17 
  4041.1106   1.11703e-17 
  4043.2556   1.10076e-17 
  4045.4009   1.84245e-17 
  4047.5464   1.91467e-17 
  4049.6921   1.48917e-17 
  4051.8381    1.5043e-17 
  4053.9844   1.43315e-17 
  4056.1309   1.54949e-17 
  4058.2776   1.98133e-17 
  4060.4246   1.59671e-17 
  4062.5718   1.32184e-17 
  4064.7192   1.36707e-17 
  4066.8669   1.35536e-17 
  4069.0149   1.37926e-17 
  4071.1631   2.15546e-17 
  4073.3113   1.51088e-17 
  4075.4602   1.24404e-17 
  4077.6089   1.62308e-17 
  4079.7581   1.57936e-17 
  4081.9075   1.36305e-17 
  4084.0571   1.60858e-17 
   4086.207   1.39453e-17 
  4088.3569   1.29107e-17 
  4090.5073   1.20735e-17 
   4092.658   1.56024e-17 
  4094.8086   1.73443e-17 
  4096.9595   1.47294e-17 
  4099.1108   1.34373e-17 
  4101.2622   1.80156e-17 
  4103.4141   1.35014e-17 
  4105.5659   1.39104e-17 
  4107.7183   1.25514e-17 
  4109.8706   1.36823e-17 
  4112.0234    1.5917e-17 
  4114.1763    1.7229e-17 
  4116.3291   1.82009e-17 
  4118.4824   1.86476e-17 
  4120.6362   1.84269e-17 
  4122.7896   1.74352e-17 
  4124.9438    1.3971e-17 
  4127.0977   1.59628e-17 
  4129.2524   1.55217e-17 
  4131.4072    1.4293e-17 
   4133.562    1.6771e-17 
  4135.7168   1.99039e-17 
  4137.8721   1.89503e-17 
  4140.0278   1.56399e-17 
  4142.1836   1.94581e-17 
  4144.3394   1.66565e-17 
  4146.4956   1.88323e-17 
  4148.6523   1.58999e-17 
  4150.8086   1.53098e-17 
  4152.9658   1.54345e-17 
  4155.1226   1.72485e-17 
  4157.2798   1.57875e-17 
  4159.4375   1.71209e-17 
  4161.5952   1.43604e-17 
  4163.7529   1.76932e-17 
  4165.9111   1.80462e-17 
  4168.0693     1.794e-17 
   4170.228   1.71542e-17 
  4172.3867   1.33356e-17 
  4174.5459   1.42235e-17 
  4176.7051   1.56736e-17 
  4178.8643   1.91134e-17 
  4181.0239   1.41533e-17 
  4183.1836   2.13705e-17 
  4185.3438   1.77619e-17 
  4187.5039   1.27759e-17 
  4189.6646   1.85542e-17 
  4191.8252   1.77028e-17 
  4193.9858     1.984e-17 
   4196.147   1.90298e-17 
  4198.3081   1.73707e-17 
  4200.4697   1.84509e-17 
  4202.6313   2.03001e-17 
  4204.7935   2.12138e-17 
  4206.9556   1.72992e-17 
  4209.1177   1.91146e-17 
  4211.2803   1.90667e-17 
  4213.4429   1.64317e-17 
  4215.6055   1.56933e-17 
  4217.7686   1.94941e-17 
  4219.9321   1.74915e-17 
  4222.0952    1.7781e-17 
  4224.2593    1.9677e-17 
  4226.4229   1.55644e-17 
  4228.5869    1.9196e-17 
  4230.7515    1.7964e-17 
  4232.9155   1.91204e-17 
  4235.0806   1.64535e-17 
  4237.2451   1.80323e-17 
  4239.4102   1.70097e-17 
  4241.5752   1.89037e-17 
  4243.7407   1.67709e-17 
  4245.9067   1.93338e-17 
  4248.0723   1.61552e-17 
  4250.2383   1.98044e-17 
  4252.4043   2.07532e-17 
  4254.5708   2.00004e-17 
  4256.7373   2.09745e-17 
  4258.9043   1.66531e-17 
  4261.0708   1.81894e-17 
  4263.2383   2.34759e-17 
  4265.4053   1.80063e-17 
  4267.5728   2.00071e-17 
  4269.7407   1.68704e-17 
  4271.9087   1.93785e-17 
  4274.0767   1.74482e-17 
  4276.2446   1.80081e-17 
  4278.4131   1.97539e-17 
   4280.582   1.78166e-17 
  4282.7505   1.80946e-17 
  4284.9194   1.97323e-17 
  4287.0884    1.7183e-17 
  4289.2578   2.18819e-17 
  4291.4272   1.94182e-17 
  4293.5972   1.76732e-17 
  4295.7671   1.81108e-17 
   4297.937   1.92494e-17 
  4300.1074   1.57653e-17 
  4302.2778   1.46733e-17 
  4304.4482   1.68437e-17 
  4306.6191   1.73674e-17 
    4308.79   1.94549e-17 
  4310.9609   1.87669e-17 
  4313.1323   1.82564e-17 
  4315.3037   1.90528e-17 
  4317.4751    2.1841e-17 
   4319.647   2.13963e-17 
  4321.8188   1.89939e-17 
  4323.9912   1.84061e-17 
  4326.1636   2.21056e-17 
  4328.3359    1.8129e-17 
  4330.5088   1.84787e-17 
  4332.6816   1.78768e-17 
  4334.8545   1.78735e-17 
  4337.0278   2.04296e-17 
  4339.2007   1.82511e-17 
  4341.3745   2.04046e-17 
  4343.5479   2.02089e-17 
  4345.7217    1.9517e-17 
   4347.896   1.76723e-17 
  4350.0698   1.86022e-17 
  4352.2441   1.62675e-17 
  4354.4189   2.03512e-17 
  4356.5933   1.76451e-17 
  4358.7681   2.23153e-17 
  4360.9434   1.90814e-17 
  4363.1182   1.88108e-17 
  4365.2935   2.09712e-17 
  4367.4692   2.04863e-17 
  4369.6445   1.71009e-17 
  4371.8203    2.2089e-17 
  4373.9966   1.85498e-17 
  4376.1724   1.90157e-17 
  4378.3486   2.00699e-17 
  4380.5254   2.17794e-17 
  4382.7017   2.00039e-17 
  4384.8784   2.27769e-17 
  4387.0552   2.30731e-17 
  4389.2324     2.202e-17 
  4391.4097   1.83439e-17 
  4393.5869   2.20811e-17 
  4395.7642   2.03121e-17 
  4397.9419   1.81804e-17 
  4400.1201   1.77528e-17 
  4402.2979   1.97196e-17 
  4404.4761   2.14546e-17 
  4406.6543   2.01319e-17 
  4408.8325   2.95621e-17 
  4411.0112    2.9761e-17 
  4413.1899   2.98459e-17 
  4415.3687   2.33762e-17 
  4417.5479   2.01214e-17 
  4419.7271    1.6515e-17 
  4421.9062   1.69863e-17 
  4424.0859   1.70859e-17 
  4426.2656   1.69558e-17 
  4428.4453   1.54231e-17 
   4430.625   1.62965e-17 
  4432.8052   1.76602e-17 
  4434.9854   1.37925e-17 
  4437.1655   1.40548e-17 
  4439.3462   1.25546e-17 
  4441.5269   1.65491e-17 
  4443.7075   1.76477e-17 
  4445.8882   1.28706e-17 
  4448.0693   1.25549e-17 
  4450.2505   1.69078e-17 
  4452.4321   1.67473e-17 
  4454.6133     1.587e-17 
  4456.7949   1.57811e-17 
  4458.9766   1.29406e-17 
  4461.1587   1.49584e-17 
  4463.3408   1.81191e-17 
  4465.5229   1.48769e-17 
  4467.7051   1.71188e-17 
  4469.8877   1.51355e-17 
  4472.0703   1.91164e-17 
  4474.2529   1.57037e-17 
  4476.4355   1.82402e-17 
  4478.6187   1.55244e-17 
  4480.8018   1.79917e-17 
  4482.9849   1.18325e-17 
  4485.1685   1.73423e-17 
  4487.3521   1.57619e-17 
  4489.5356   1.45058e-17 
  4491.7192   1.26063e-17 
  4493.9033   1.79292e-17 
  4496.0874   1.46686e-17 
  4498.2715   1.84452e-17 
  4500.4556   1.62725e-17 
  4502.6401   1.10157e-17 
  4504.8247   1.76811e-17 
  4507.0093   1.69551e-17 
  4509.1943   1.96728e-17 
  4511.3789   1.67645e-17 
   4513.564    1.7211e-17 
  4515.7495   1.68862e-17 
  4517.9346   1.79141e-17 
  4520.1201   1.73599e-17 
  4522.3057   1.56659e-17 
  4524.4912   2.00834e-17 
  4526.6772   1.87227e-17 
  4528.8633   1.97239e-17 
  4531.0493   1.93622e-17 
  4533.2354   1.78476e-17 
  4535.4219   1.56403e-17 
  4537.6079    1.7431e-17 
  4539.7949   1.99707e-17 
  4541.9814   1.99331e-17 
   4544.168   1.81236e-17 
   4546.355   1.64527e-17 
   4548.542   2.19163e-17 
   4550.729   1.97265e-17 
  4552.9165   1.81051e-17 
   4555.104   1.81467e-17 
  4557.2915   1.96644e-17 
   4559.479   1.98882e-17 
  4561.6665    2.0738e-17 
  4563.8545   2.02964e-17 
  4566.0425   2.06098e-17 
  4568.2305   2.20828e-17 
  4570.4189   2.03574e-17 
  4572.6069   2.18968e-17 
  4574.7954   2.25371e-17 
  4576.9839   2.03613e-17 
  4579.1724   2.18374e-17 
  4581.3613   2.41229e-17 
  4583.5503   2.21108e-17 
  4585.7393   2.36365e-17 
  4587.9282   2.31392e-17 
  4590.1177   2.16642e-17 
  4592.3066   1.58073e-17 
  4594.4961   2.07864e-17 
  4596.6855   2.07607e-17 
