# STATUS =
# OBJECT = 2019szu
# TELESCOPE = P200
# INSTRUMENT = SEDM
# DATE-OBS = 2019-11-24 00:00:00.000
# MJD = 58811.0
# EXPTIME =
# AIRMASS =
# SLIT =
# DISPERSER =
# SOURCE = DOI 10.3847/1538-4357/aca161
# FILTER =
# RESOLUTION =
# FLUX_STANDARD =
# EXTINCTION_CORRECTED =
# PHOTOMETRY_CALIBRATED =
# TELLURIC_CORRECTED =
# FLUX_UNITS =
# WAVE_UNITS =
# QUALITY =
# MIN_WAVE = 3400.0
# MAX_WAVE = 9998.7886
# COMMENT =
  Wavelength         Flux 
 3401.534602   2.0599e-16 
 3403.069204   1.5845e-16 
 3404.603806   1.7303e-16 
 3406.138408     1.59e-16 
  3407.67301   1.3971e-16 
 3409.207612   1.6187e-16 
 3410.742214    9.609e-17 
 3412.276816   1.0767e-16 
 3413.811418   1.3158e-16 
  3415.34602   1.2665e-16 
 3416.880622   1.3332e-16 
 3418.415224   8.5451e-17 
 3419.949826   1.2156e-16 
 3421.484428   9.4406e-17 
  3423.01903   9.7637e-17 
 3424.553632   1.2441e-16 
 3426.088234   1.3151e-16 
 3427.622836   1.2266e-16 
 3429.157438   1.1755e-16 
  3430.69204   8.4265e-17 
 3432.226642   8.7008e-17 
 3433.761244   7.4367e-17 
 3435.295846   7.1593e-17 
 3436.830448   5.8539e-17 
  3438.36505   8.0845e-17 
 3439.899652   6.7573e-17 
 3441.434254   9.3268e-17 
 3442.968856   7.2112e-17 
 3444.503458    7.045e-17 
  3446.03806   1.0076e-16 
 3447.572662   9.8751e-17 
 3449.107264   9.4891e-17 
 3450.641866   8.1337e-17 
 3452.176468   8.6285e-17 
  3453.71107   8.9913e-17 
 3455.245672   5.1885e-17 
 3456.780274   8.0191e-17 
 3458.314876   1.1095e-16 
 3459.849478   1.0329e-16 
  3461.38408    9.873e-17 
 3462.918682   8.3794e-17 
 3464.453284   1.0203e-16 
 3465.987886   7.3882e-17 
 3467.522488    9.458e-17 
  3469.05709   8.6155e-17 
 3470.591692   1.0122e-16 
 3472.126294   7.5765e-17 
 3473.660896   8.5112e-17 
 3475.195498   7.9896e-17 
   3476.7301   7.4388e-17 
 3478.264702   8.0192e-17 
 3479.799304   8.7596e-17 
 3481.333906    8.425e-17 
 3482.868508   8.1303e-17 
  3484.40311   9.1616e-17 
 3485.937712   9.3463e-17 
 3487.472314   8.0168e-17 
 3489.006916   7.7676e-17 
 3490.541518   8.8805e-17 
  3492.07612   7.1754e-17 
 3493.610722   6.5977e-17 
 3495.145324   9.0928e-17 
 3496.679926   7.6408e-17 
 3498.214528   6.7068e-17 
  3499.74913    7.635e-17 
 3501.283732   8.4588e-17 
 3502.818334   6.9668e-17 
 3504.352936   6.7498e-17 
 3505.887538   6.8184e-17 
  3507.42214   8.9138e-17 
 3508.956742   9.5505e-17 
 3510.491344   1.1769e-16 
 3512.025946   9.8557e-17 
 3513.560548   9.6172e-17 
  3515.09515   1.0877e-16 
 3516.629752   9.6428e-17 
 3518.164354   1.0113e-16 
 3519.698956   1.1136e-16 
 3521.233558   1.2132e-16 
  3522.76816   1.2479e-16 
 3524.302762   1.4442e-16 
 3525.837364   1.5015e-16 
 3527.371966   1.1925e-16 
 3528.906568   1.4537e-16 
  3530.44117    1.615e-16 
 3531.975772   1.4395e-16 
 3533.510374   1.4837e-16 
 3535.044976   1.3843e-16 
 3536.579578   1.1921e-16 
  3538.11418   1.3366e-16 
 3539.648782   1.6493e-16 
 3541.183384   1.6506e-16 
 3542.717986   1.5658e-16 
 3544.252588   1.5297e-16 
  3545.78719   1.1001e-16 
 3547.321792   1.2812e-16 
 3548.856394   1.2886e-16 
 3550.390996   1.2061e-16 
 3551.925598   1.2042e-16 
   3553.4602   1.0569e-16 
 3554.994802   1.2169e-16 
 3556.529404   1.3536e-16 
 3558.064006   1.2679e-16 
 3559.598608    1.187e-16 
  3561.13321   1.1317e-16 
 3562.667812    1.272e-16 
 3564.202414   9.9187e-17 
 3565.737016   1.1234e-16 
 3567.271618   1.1435e-16 
  3568.80622   1.0482e-16 
 3570.340822    1.122e-16 
 3571.875424    9.944e-17 
 3573.410026   1.0855e-16 
 3574.944628   1.1414e-16 
  3576.47923   1.1672e-16 
 3578.013832   1.1771e-16 
 3579.548434   1.0192e-16 
 3581.083036   1.1043e-16 
 3582.617638    1.146e-16 
  3584.15224   1.1765e-16 
 3585.686842   1.2544e-16 
 3587.221444   1.1143e-16 
 3588.756046   1.3365e-16 
 3590.290648   1.3582e-16 
  3591.82525   1.1284e-16 
 3593.359852   1.4827e-16 
 3594.894454   1.5796e-16 
 3596.429056   1.3565e-16 
 3597.963658    1.294e-16 
  3599.49826   1.4557e-16 
 3601.032862   1.5712e-16 
 3602.567464   1.5353e-16 
 3604.102066   1.4181e-16 
 3605.636668   1.4283e-16 
  3607.17127   1.4561e-16 
 3608.705872   1.3445e-16 
 3610.240474   1.3469e-16 
 3611.775076   1.4527e-16 
 3613.309678   1.3619e-16 
  3614.84428   1.2748e-16 
 3616.378882   1.2401e-16 
 3617.913484   1.2528e-16 
 3619.448086   1.3257e-16 
 3620.982688    1.497e-16 
  3622.51729   1.3049e-16 
 3624.051892   1.3562e-16 
 3625.586494   1.1947e-16 
 3627.121096   1.2628e-16 
 3628.655698   1.1639e-16 
   3630.1903   1.4103e-16 
 3631.724902   1.1933e-16 
 3633.259504   1.2136e-16 
 3634.794106   1.4022e-16 
 3636.328708   1.3376e-16 
  3637.86331   1.2969e-16 
 3639.397912   1.2531e-16 
 3640.932514   1.4002e-16 
 3642.467116   1.2275e-16 
 3644.001718   1.2214e-16 
  3645.53632   1.2948e-16 
 3647.070922   1.0485e-16 
 3648.605524   1.3241e-16 
 3650.140126   1.0068e-16 
 3651.674728   1.0742e-16 
  3653.20933   1.2097e-16 
 3654.743932   1.1178e-16 
 3656.278534   1.3111e-16 
 3657.813136   1.3303e-16 
 3659.347738   1.0809e-16 
  3660.88234   1.1518e-16 
 3662.416942   1.1935e-16 
 3663.951544   1.1019e-16 
 3665.486146   1.1915e-16 
 3667.020748   1.0975e-16 
  3668.55535    1.065e-16 
 3670.089952   1.0991e-16 
 3671.624554    9.426e-17 
 3673.159156   1.1505e-16 
 3674.693758    1.299e-16 
  3676.22836    1.167e-16 
 3677.762962   1.2337e-16 
 3679.297564   1.1264e-16 
 3680.832166   1.0921e-16 
 3682.366768   1.2088e-16 
  3683.90137   1.1048e-16 
 3685.435972    1.332e-16 
 3686.970574    1.218e-16 
 3688.505176   1.0644e-16 
 3690.039778     1.04e-16 
  3691.57438   9.8568e-17 
 3693.108982   1.1242e-16 
 3694.643584   1.1543e-16 
 3696.178186   1.1123e-16 
 3697.712788   1.1314e-16 
  3699.24739   1.0287e-16 
 3700.781992   9.7806e-17 
 3702.316594   9.6535e-17 
 3703.851196   9.9707e-17 
 3705.385798    1.125e-16 
   3706.9204    1.095e-16 
 3708.455002    1.094e-16 
 3709.989604   1.1575e-16 
 3711.524206   8.6394e-17 
 3713.058808   9.5335e-17 
  3714.59341   9.8541e-17 
 3716.128012   7.9899e-17 
 3717.662614   8.8272e-17 
 3719.197216    8.899e-17 
 3720.731818   8.6483e-17 
  3722.26642   9.2578e-17 
 3723.801022   9.3467e-17 
 3725.335624   8.5377e-17 
 3726.870226   8.6345e-17 
 3728.404828   8.8107e-17 
  3729.93943   7.6133e-17 
 3731.474032   9.6118e-17 
 3733.008634   7.5627e-17 
 3734.543236   8.2389e-17 
 3736.077838   8.6412e-17 
  3737.61244    9.665e-17 
 3739.147042   9.9374e-17 
 3740.681644   8.9156e-17 
 3742.216246   9.2708e-17 
 3743.750848   9.3385e-17 
  3745.28545   8.3617e-17 
 3746.820052   7.1773e-17 
 3748.354654   8.9554e-17 
 3749.889256   8.9916e-17 
 3751.423858   9.1707e-17 
  3752.95846   8.5499e-17 
 3754.493062   9.9269e-17 
 3756.027664   1.0089e-16 
 3757.562266   9.3817e-17 
 3759.096868   8.5325e-17 
  3760.63147    9.303e-17 
 3762.166072   9.4531e-17 
 3763.700674    8.362e-17 
 3765.235276   1.0334e-16 
 3766.769878   1.0181e-16 
  3768.30448   9.1154e-17 
 3769.839082   8.7157e-17 
 3771.373684   9.8533e-17 
 3772.908286   9.4213e-17 
 3774.442888   1.0049e-16 
  3775.97749   1.0701e-16 
 3777.512092   1.0644e-16 
 3779.046694   9.3677e-17 
 3780.581296   9.4349e-17 
 3782.115898   1.0459e-16 
   3783.6505   1.1062e-16 
 3785.185102   1.1707e-16 
 3786.719704   1.1248e-16 
 3788.254306   1.0609e-16 
 3789.788908   1.0868e-16 
  3791.32351   1.1657e-16 
 3792.858112   1.0985e-16 
 3794.392714   1.1351e-16 
 3795.927316    1.008e-16 
 3797.461918   9.8166e-17 
  3798.99652    9.325e-17 
 3800.531122   9.3312e-17 
 3802.065724   1.0196e-16 
 3803.600326   1.0248e-16 
 3805.134928   1.0338e-16 
  3806.66953   9.5122e-17 
 3808.204132   1.1088e-16 
 3809.738734   1.1735e-16 
 3811.273336   1.2266e-16 
 3812.807938   1.0966e-16 
  3814.34254   1.0389e-16 
 3815.877142   1.1744e-16 
 3817.411744   1.1722e-16 
 3818.946346   1.0257e-16 
 3820.480948   1.0657e-16 
  3822.01555   1.0675e-16 
 3823.550152   1.1165e-16 
 3825.084754   1.2088e-16 
 3826.619356   1.2297e-16 
 3828.153958   1.1702e-16 
  3829.68856   1.2123e-16 
 3831.223162   1.2235e-16 
 3832.757764   1.0067e-16 
 3834.292366   1.1351e-16 
 3835.826968   1.1295e-16 
  3837.36157   1.0373e-16 
 3838.896172   1.0191e-16 
 3840.430774   1.1037e-16 
 3841.965376   1.1606e-16 
 3843.499978   1.0962e-16 
  3845.03458   1.1768e-16 
 3846.569182   1.0747e-16 
 3848.103784   9.7647e-17 
 3849.638386   1.1581e-16 
 3851.172988   1.0451e-16 
  3852.70759   1.0133e-16 
 3854.242192   1.1138e-16 
 3855.776794   1.2066e-16 
 3857.311396   1.0691e-16 
 3858.845998    1.104e-16 
   3860.3806   1.0293e-16 
 3861.915202   1.0054e-16 
 3863.449804   1.0371e-16 
 3864.984406   1.0046e-16 
 3866.519008   1.1243e-16 
  3868.05361   9.6791e-17 
 3869.588212   1.0374e-16 
 3871.122814   1.0454e-16 
 3872.657416   9.7922e-17 
 3874.192018   9.1792e-17 
  3875.72662   9.3636e-17 
 3877.261222   9.6167e-17 
 3878.795824   9.7434e-17 
 3880.330426   9.3844e-17 
 3881.865028   1.0416e-16 
  3883.39963   1.0025e-16 
 3884.934232   9.9423e-17 
 3886.468834   9.8766e-17 
 3888.003436   1.0562e-16 
 3889.538038   1.1235e-16 
  3891.07264   1.0872e-16 
 3892.607242   1.2024e-16 
 3894.141844   1.1763e-16 
 3895.676446   1.0902e-16 
 3897.211048   1.1462e-16 
  3898.74565   1.1516e-16 
 3900.280252   1.2898e-16 
 3901.814854   1.2181e-16 
 3903.349456   1.1224e-16 
 3904.884058   1.1305e-16 
  3906.41866   1.2773e-16 
 3907.953262    1.125e-16 
 3909.487864   1.1208e-16 
 3911.022466   1.1116e-16 
 3912.557068   1.3343e-16 
  3914.09167   1.1527e-16 
 3915.626272   1.1775e-16 
 3917.160874   1.2713e-16 
 3918.695476    1.112e-16 
 3920.230078   1.1577e-16 
  3921.76468   1.0826e-16 
 3923.299282   1.2235e-16 
 3924.833884   1.0797e-16 
 3926.368486   1.1844e-16 
 3927.903088   1.0847e-16 
  3929.43769   1.1038e-16 
 3930.972292   1.0786e-16 
 3932.506894   1.1809e-16 
 3934.041496   1.1146e-16 
 3935.576098   1.0752e-16 
   3937.1107   1.1641e-16 
 3938.645302   1.1602e-16 
 3940.179904   1.1208e-16 
 3941.714506   1.2539e-16 
 3943.249108   1.0519e-16 
  3944.78371   1.0912e-16 
 3946.318312   1.0399e-16 
 3947.852914   9.8217e-17 
 3949.387516   1.0933e-16 
 3950.922118   1.1661e-16 
  3952.45672   1.0896e-16 
 3953.991322   1.3162e-16 
 3955.525924   1.2654e-16 
 3957.060526   1.0172e-16 
 3958.595128   1.1093e-16 
  3960.12973    1.071e-16 
 3961.664332   9.6218e-17 
 3963.198934   1.0052e-16 
 3964.733536   1.1258e-16 
 3966.268138   9.7405e-17 
  3967.80274   1.0388e-16 
 3969.337342   1.0517e-16 
 3970.871944   1.0159e-16 
 3972.406546   1.1495e-16 
 3973.941148   1.0511e-16 
  3975.47575   8.8633e-17 
 3977.010352   1.1612e-16 
 3978.544954   1.1176e-16 
 3980.079556   1.0925e-16 
 3981.614158   1.1547e-16 
  3983.14876   9.6246e-17 
 3984.683362   1.1154e-16 
 3986.217964   1.0229e-16 
 3987.752566   1.0492e-16 
 3989.287168   1.0207e-16 
  3990.82177   1.1362e-16 
 3992.356372   1.0174e-16 
 3993.890974   9.7828e-17 
 3995.425576   9.6362e-17 
 3996.960178   9.9483e-17 
  3998.49478    1.199e-16 
 4000.029382   1.1673e-16 
 4001.563984   1.1583e-16 
 4003.098586   1.0722e-16 
 4004.633188   9.7897e-17 
  4006.16779   9.7261e-17 
 4007.702392   1.0595e-16 
 4009.236994   1.0712e-16 
 4010.771596    1.062e-16 
 4012.306198   9.5313e-17 
   4013.8408   1.2012e-16 
 4015.375402   1.0197e-16 
 4016.910004   9.1211e-17 
 4018.444606   1.0398e-16 
 4019.979208   1.0562e-16 
  4021.51381   9.9368e-17 
 4023.048412   1.1087e-16 
 4024.583014   1.1765e-16 
 4026.117616   1.0486e-16 
 4027.652218    1.123e-16 
  4029.18682    1.148e-16 
 4030.721422   1.0452e-16 
 4032.256024   1.0917e-16 
 4033.790626   1.0349e-16 
 4035.325228    1.019e-16 
  4036.85983   1.0769e-16 
 4038.394432   1.1386e-16 
 4039.929034   9.8869e-17 
 4041.463636   1.0535e-16 
 4042.998238   9.1626e-17 
  4044.53284   1.1001e-16 
 4046.067442   1.2229e-16 
 4047.602044   8.8671e-17 
 4049.136646   9.7345e-17 
 4050.671248   1.0209e-16 
  4052.20585   1.2491e-16 
 4053.740452   1.2925e-16 
 4055.275054   1.0405e-16 
 4056.809656   1.2018e-16 
 4058.344258   1.2887e-16 
  4059.87886   1.2511e-16 
 4061.413462   1.1663e-16 
 4062.948064   1.1021e-16 
 4064.482666    1.192e-16 
 4066.017268   1.1856e-16 
  4067.55187   1.2899e-16 
 4069.086472   1.2647e-16 
 4070.621074   1.1275e-16 
 4072.155676   1.2347e-16 
 4073.690278   1.2114e-16 
  4075.22488    1.223e-16 
 4076.759482   1.2463e-16 
 4078.294084    1.236e-16 
 4079.828686   1.0594e-16 
 4081.363288    1.118e-16 
  4082.89789   1.2351e-16 
 4084.432492   1.1433e-16 
 4085.967094   1.1735e-16 
 4087.501696   1.2249e-16 
 4089.036298   1.2953e-16 
   4090.5709   1.2365e-16 
 4092.105502   9.4512e-17 
 4093.640104   1.0585e-16 
 4095.174706   1.1234e-16 
 4096.709308   1.0725e-16 
  4098.24391   1.1334e-16 
 4099.778512   1.0894e-16 
 4101.313114   1.0402e-16 
 4102.847716    1.069e-16 
 4104.382318   1.1327e-16 
  4105.91692   1.0464e-16 
 4107.451522   1.0176e-16 
 4108.986124   1.0494e-16 
 4110.520726   1.0296e-16 
 4112.055328   1.0362e-16 
  4113.58993   1.0734e-16 
 4115.124532   9.9625e-17 
 4116.659134   1.0562e-16 
 4118.193736   1.0484e-16 
 4119.728338   9.9123e-17 
  4121.26294   9.0839e-17 
 4122.797542   1.0297e-16 
 4124.332144   9.3854e-17 
 4125.866746   1.0649e-16 
 4127.401348   9.5783e-17 
  4128.93595   1.0713e-16 
 4130.470552   1.1263e-16 
 4132.005154   1.0912e-16 
 4133.539756   1.0355e-16 
 4135.074358   1.0166e-16 
  4136.60896   1.0146e-16 
 4138.143562   9.3059e-17 
 4139.678164   8.7959e-17 
 4141.212766   9.8339e-17 
 4142.747368   1.0365e-16 
  4144.28197   1.0285e-16 
 4145.816572   9.4505e-17 
 4147.351174   1.0179e-16 
 4148.885776   1.0439e-16 
 4150.420378   8.9406e-17 
  4151.95498   1.0607e-16 
 4153.489582   9.6317e-17 
 4155.024184   9.6768e-17 
 4156.558786   9.2227e-17 
 4158.093388   1.0717e-16 
  4159.62799    9.836e-17 
 4161.162592   9.8958e-17 
 4162.697194   9.9116e-17 
 4164.231796   1.0073e-16 
 4165.766398   9.4265e-17 
    4167.301   1.0224e-16 
 4168.835602   1.0642e-16 
 4170.370204   1.1249e-16 
 4171.904806   1.0761e-16 
 4173.439408    9.405e-17 
  4174.97401   9.9644e-17 
 4176.508612   1.0887e-16 
 4178.043214   1.0172e-16 
 4179.577816   1.0096e-16 
 4181.112418   9.3302e-17 
  4182.64702    1.014e-16 
 4184.181622   1.0289e-16 
 4185.716224   9.7692e-17 
 4187.250826   1.0315e-16 
 4188.785428   1.0957e-16 
  4190.32003   1.0244e-16 
 4191.854632   1.0274e-16 
 4193.389234    1.053e-16 
 4194.923836   1.0249e-16 
 4196.458438   9.5185e-17 
  4197.99304    1.038e-16 
 4199.527642   1.0628e-16 
 4201.062244   9.3288e-17 
 4202.596846   9.7877e-17 
 4204.131448    1.126e-16 
  4205.66605   1.0077e-16 
 4207.200652   8.5927e-17 
 4208.735254   9.5832e-17 
 4210.269856   9.2513e-17 
 4211.804458   1.0376e-16 
  4213.33906   9.8767e-17 
 4214.873662    9.874e-17 
 4216.408264   1.0791e-16 
 4217.942866   9.9235e-17 
 4219.477468   1.0145e-16 
  4221.01207    1.058e-16 
 4222.546672   9.4908e-17 
 4224.081274   9.8409e-17 
 4225.615876   9.2145e-17 
 4227.150478   9.2208e-17 
  4228.68508    9.176e-17 
 4230.219682   9.5404e-17 
 4231.754284   9.0042e-17 
 4233.288886   1.0425e-16 
 4234.823488   1.0829e-16 
  4236.35809   1.0328e-16 
 4237.892692   1.0161e-16 
 4239.427294   1.0819e-16 
 4240.961896   1.0805e-16 
 4242.496498   1.0249e-16 
   4244.0311   8.8876e-17 
 4245.565702   1.0403e-16 
 4247.100304   1.0394e-16 
 4248.634906   9.8218e-17 
 4250.169508   1.0179e-16 
  4251.70411   8.0754e-17 
 4253.238712   9.2753e-17 
 4254.773314   9.9462e-17 
 4256.307916   8.0717e-17 
 4257.842518    8.578e-17 
  4259.37712   1.0146e-16 
 4260.911722   9.9974e-17 
 4262.446324    1.001e-16 
 4263.980926   1.0846e-16 
 4265.515528   1.0444e-16 
  4267.05013   9.5025e-17 
 4268.584732   9.0098e-17 
 4270.119334   9.3168e-17 
 4271.653936   9.8988e-17 
 4273.188538   1.0221e-16 
  4274.72314   1.0404e-16 
 4276.257742   9.4556e-17 
 4277.792344   9.7813e-17 
 4279.326946   1.0413e-16 
 4280.861548   1.1124e-16 
  4282.39615    1.117e-16 
 4283.930752   1.0437e-16 
 4285.465354    1.054e-16 
 4286.999956    9.478e-17 
 4288.534558   1.0083e-16 
  4290.06916   1.0198e-16 
 4291.603762   1.1883e-16 
 4293.138364   1.0797e-16 
 4294.672966   9.5985e-17 
 4296.207568   9.4403e-17 
  4297.74217   9.6902e-17 
 4299.276772   9.4098e-17 
 4300.811374   8.8223e-17 
 4302.345976   9.3773e-17 
 4303.880578   9.4677e-17 
  4305.41518   1.0415e-16 
 4306.949782   1.1283e-16 
 4308.484384   1.0581e-16 
 4310.018986   9.6635e-17 
 4311.553588   9.6299e-17 
  4313.08819   1.0292e-16 
 4314.622792    9.395e-17 
 4316.157394   1.0039e-16 
 4317.691996   9.9389e-17 
 4319.226598   9.6839e-17 
   4320.7612   1.0121e-16 
 4322.295802   1.0444e-16 
 4323.830404   1.0388e-16 
 4325.365006   1.1229e-16 
 4326.899608   1.1048e-16 
  4328.43421   1.0232e-16 
 4329.968812   1.0657e-16 
 4331.503414   9.9582e-17 
 4333.038016   1.0891e-16 
 4334.572618   1.1411e-16 
  4336.10722   9.5508e-17 
 4337.641822   1.0265e-16 
 4339.176424   1.1482e-16 
 4340.711026   1.0598e-16 
 4342.245628   1.1054e-16 
  4343.78023   8.8801e-17 
 4345.314832   1.0165e-16 
 4346.849434   1.0175e-16 
 4348.384036   1.1508e-16 
 4349.918638   1.1309e-16 
  4351.45324    1.154e-16 
 4352.987842   1.1915e-16 
 4354.522444   9.7723e-17 
 4356.057046   1.0027e-16 
 4357.591648   1.5692e-16 
  4359.12625   1.1911e-16 
 4360.660852    1.098e-16 
 4362.195454   1.2333e-16 
 4363.730056   1.0341e-16 
 4365.264658    1.152e-16 
  4366.79926   1.1377e-16 
 4368.333862   1.0608e-16 
 4369.868464   1.0891e-16 
 4371.403066   1.0925e-16 
 4372.937668   9.4153e-17 
  4374.47227   9.1007e-17 
 4376.006872   1.0464e-16 
 4377.541474   1.1435e-16 
 4379.076076   9.3779e-17 
 4380.610678   9.1036e-17 
  4382.14528    1.118e-16 
 4383.679882   1.0476e-16 
 4385.214484   8.3973e-17 
 4386.749086   8.9731e-17 
 4388.283688   9.8327e-17 
  4389.81829   1.0517e-16 
 4391.352892   9.3474e-17 
 4392.887494   9.4822e-17 
 4394.422096   1.0159e-16 
 4395.956698   9.8739e-17 
   4397.4913   9.8698e-17 
 4399.025902   8.6222e-17 
 4400.560504   1.1287e-16 
 4402.095106   1.0267e-16 
 4403.629708   9.9272e-17 
  4405.16431   9.0986e-17 
 4406.698912    1.006e-16 
 4408.233514   1.0044e-16 
 4409.768116   9.9799e-17 
 4411.302718   1.0659e-16 
  4412.83732   1.1223e-16 
 4414.371922    9.927e-17 
 4415.906524   8.3334e-17 
 4417.441126   9.4023e-17 
 4418.975728   1.0418e-16 
  4420.51033   9.6116e-17 
 4422.044932   9.5815e-17 
 4423.579534   9.3826e-17 
 4425.114136   1.0333e-16 
 4426.648738   1.0441e-16 
  4428.18334   9.5324e-17 
 4429.717942   8.0315e-17 
 4431.252544   8.4925e-17 
 4432.787146   7.6014e-17 
 4434.321748   7.8269e-17 
  4435.85635   8.7131e-17 
 4437.390952   9.6925e-17 
 4438.925554   1.0103e-16 
 4440.460156   9.9542e-17 
 4441.994758   1.0321e-16 
  4443.52936    1.045e-16 
 4445.063962   9.1145e-17 
 4446.598564   7.8719e-17 
 4448.133166   8.9007e-17 
 4449.667768   7.7616e-17 
  4451.20237   9.1774e-17 
 4452.736972    1.102e-16 
 4454.271574   9.3956e-17 
 4455.806176   9.1828e-17 
 4457.340778   9.5838e-17 
  4458.87538   9.6377e-17 
 4460.409982   9.3946e-17 
 4461.944584   8.0087e-17 
 4463.479186   7.6643e-17 
 4465.013788   8.6985e-17 
  4466.54839   9.8421e-17 
 4468.082992   8.9021e-17 
 4469.617594   9.2981e-17 
 4471.152196   9.0814e-17 
 4472.686798   9.9972e-17 
   4474.2214   1.0881e-16 
 4475.756002   8.3927e-17 
 4477.290604    6.982e-17 
 4478.825206   8.3084e-17 
 4480.359808   9.3472e-17 
  4481.89441   8.4631e-17 
 4483.429012   7.7172e-17 
 4484.963614   8.9033e-17 
 4486.498216   8.7837e-17 
 4488.032818   8.9132e-17 
  4489.56742   8.1585e-17 
 4491.102022   9.8243e-17 
 4492.636624    8.551e-17 
 4494.171226   9.8046e-17 
 4495.705828   7.6816e-17 
  4497.24043   1.0318e-16 
 4498.775032   9.9095e-17 
 4500.309634   9.5523e-17 
 4501.844236   8.2149e-17 
 4503.378838   1.1349e-16 
  4504.91344   1.0012e-16 
 4506.448042   8.2433e-17 
 4507.982644   9.0254e-17 
 4509.517246   8.9978e-17 
 4511.051848    8.455e-17 
