# STATUS =
# OBJECT = iPTF16eh
# TELESCOPE = P200
# INSTRUMENT = DBSP
# DATE-OBS = 2016-02-27 00:00:00.00
# MJD = 57445.0
# EXPTIME = 0
# AIRMASS = --
# SLIT = 0
# DISPERSER = --
# SOURCE = 2018NatAs...2..887L
# FILTER =
# RESOLUTION =
# FLUX_STANDARD =
# EXTINCTION_CORRECTED = --
# PHOTOMETRY_CALIBRATED =
# TELLURIC_CORRECTED =
# FLUX_UNITS = Other
# WAVE_UNITS = Angstrom
# QUALITY = --
# MIN_WAVE = 3100.843
# MAX_WAVE = 10235.942
# COMMENT = [Marshal: lastmodified2016-03-01 06:20:13; specid8570]  [Prev. spec info - createdby: upload-marshalspec; modifiedby: upload-marshalspec]
 Wavelength        Flux      Error 
   3101.886   -1.26e-15  3.091e-16 
   3102.929   8.191e-17  2.774e-16 
   3103.971   3.368e-16  3.184e-16 
   3105.014  -2.374e-17  2.714e-16 
   3106.058   1.165e-16   2.73e-16 
   3107.101  -5.315e-17  2.322e-16 
   3108.143   5.909e-16   2.61e-16 
   3109.187   3.722e-16  2.616e-16 
    3110.23  -1.021e-19  2.219e-16 
   3111.273  -4.059e-17  2.206e-16 
   3112.317   2.798e-16  2.325e-16 
    3113.36   2.228e-16  2.466e-16 
   3114.404   6.108e-16  2.722e-16 
   3115.447   5.969e-16   2.63e-16 
   3116.491  -1.491e-16  2.353e-16 
   3117.535   6.013e-16   2.69e-16 
   3118.579  -6.571e-17  2.494e-16 
   3119.622  -1.381e-16   2.37e-16 
   3120.666  -2.147e-16   2.35e-16 
    3121.71   3.885e-16  2.633e-16 
   3122.755  -2.296e-16  2.194e-16 
   3123.798   1.236e-16   2.78e-16 
   3124.843  -1.344e-16   2.47e-16 
   3125.887   7.522e-18  2.499e-16 
   3126.932   -1.05e-16  2.565e-16 
   3127.975  -2.786e-16  2.271e-16 
    3129.02  -3.449e-16  2.363e-16 
   3130.065  -1.218e-16  2.391e-16 
   3131.109  -2.437e-16  2.338e-16 
   3132.153   3.359e-16  2.713e-16 
   3133.198   1.187e-16  2.121e-16 
   3134.243   5.337e-16  2.697e-16 
   3135.287  -2.773e-17   1.99e-16 
   3136.333   5.884e-16  2.385e-16 
   3137.378   5.273e-16  2.457e-16 
   3138.423  -1.858e-16   1.78e-16 
   3139.467   1.162e-16  2.206e-16 
   3140.513   6.672e-17  2.165e-16 
   3141.558   1.044e-16   2.08e-16 
   3142.604   9.087e-17  2.053e-16 
   3143.648   2.519e-16  1.981e-16 
   3144.694   3.369e-16  1.784e-16 
    3145.74  -2.777e-17  1.864e-16 
   3146.785   1.207e-17  2.007e-16 
    3147.83   1.627e-16  1.956e-16 
   3148.876   1.089e-16   1.91e-16 
   3149.922   4.435e-16  1.797e-16 
   3150.967   3.138e-16  1.943e-16 
   3152.013    1.16e-16  1.741e-16 
   3153.059   1.665e-16  1.922e-16 
   3154.106   3.153e-16   1.83e-16 
   3155.151   1.856e-16  1.786e-16 
   3156.197  -1.068e-16  1.413e-16 
   3157.244   1.007e-16  1.585e-16 
    3158.29   4.003e-17  1.484e-16 
   3159.336   2.913e-17  1.479e-16 
   3160.382  -7.045e-17  1.446e-16 
   3161.429   1.532e-16  1.583e-16 
   3162.475   3.847e-17   1.53e-16 
   3163.521  -1.695e-16  1.416e-16 
   3164.568  -2.396e-16  1.328e-16 
   3165.615  -1.415e-17  1.536e-16 
   3166.662   1.987e-16  1.613e-16 
   3167.708  -2.671e-16  1.368e-16 
   3168.755   1.664e-16   1.65e-16 
   3169.802   1.122e-17  1.559e-16 
   3170.848   5.119e-16  1.893e-16 
   3171.896  -5.814e-17  1.484e-16 
   3172.943    1.97e-16  1.703e-16 
    3173.99   3.456e-16   1.75e-16 
   3175.037   2.678e-16  1.648e-16 
   3176.084  -6.217e-17    1.5e-16 
   3177.132   3.127e-16  1.643e-16 
    3178.18    1.46e-16   1.65e-16 
   3179.226  -9.661e-17  1.558e-16 
   3180.274   2.255e-16  1.724e-16 
   3181.322  -1.585e-17  1.561e-16 
    3182.37  -6.511e-17  1.585e-16 
   3183.417   3.453e-16  1.811e-16 
   3184.465   1.075e-16  1.693e-16 
   3185.513  -8.847e-17  1.679e-16 
   3186.561   2.798e-16  1.725e-16 
   3187.608   9.901e-17  1.759e-16 
   3188.656  -8.752e-17  1.506e-16 
   3189.705   1.212e-16  1.613e-16 
   3190.752   1.933e-17  1.283e-16 
   3191.801  -1.569e-16  1.129e-16 
   3192.849  -1.832e-16  1.264e-16 
   3193.898   1.145e-16  1.336e-16 
   3194.945   1.779e-16  1.362e-16 
   3195.994   1.495e-16  1.381e-16 
   3197.043   1.376e-16  1.491e-16 
   3198.091   1.994e-16  1.428e-16 
   3199.139   4.295e-16  1.572e-16 
   3200.188  -2.828e-17  1.406e-16 
   3201.237   2.897e-16  1.606e-16 
   3202.286  -1.901e-16  1.546e-16 
   3203.334  -1.743e-17  1.516e-16 
   3204.384   2.877e-17  1.521e-16 
   3205.433    2.18e-16  1.533e-16 
   3206.481  -1.469e-16  1.362e-16 
    3207.53   1.103e-17  1.342e-16 
    3208.58   4.404e-17   1.36e-16 
   3209.629   8.291e-17  1.364e-16 
   3210.678  -3.457e-16  1.187e-16 
   3211.727   3.462e-16  1.424e-16 
   3212.777   7.678e-17  1.432e-16 
   3213.827   -6.83e-17  1.237e-16 
   3214.876   2.862e-16  1.421e-16 
   3215.925   2.937e-16  1.388e-16 
   3216.975   1.694e-16  1.379e-16 
   3218.025   1.694e-16  1.429e-16 
   3219.074  -1.431e-16  1.255e-16 
   3220.124   3.445e-16   1.38e-16 
   3221.175  -7.173e-17  1.264e-16 
   3222.224   4.826e-16  1.514e-16 
   3223.274   2.497e-16  1.407e-16 
   3224.324   1.619e-16  1.433e-16 
   3225.375     3.8e-16   1.46e-16 
   3226.424   1.635e-16  1.386e-16 
   3227.475  -5.639e-19  1.299e-16 
   3228.525   5.537e-17  1.267e-16 
   3229.576  -2.853e-17  1.367e-16 
   3230.625   8.944e-17   1.51e-16 
   3231.676   7.459e-17  1.448e-16 
   3232.727   6.439e-17  1.395e-16 
   3233.778    1.49e-16  1.443e-16 
   3234.828  -1.613e-16  1.233e-16 
   3235.879   2.158e-16   1.45e-16 
    3236.93   2.941e-17  1.313e-16 
    3237.98   3.774e-16  1.387e-16 
   3239.031   3.653e-16  1.315e-16 
   3240.082   2.978e-16  1.371e-16 
   3241.133   2.221e-16  1.314e-16 
   3242.184   1.488e-16  1.286e-16 
   3243.235   2.773e-17  1.238e-16 
   3244.287  -7.611e-17  1.188e-16 
   3245.338   1.945e-17  1.212e-16 
   3246.389   1.584e-16  1.264e-16 
    3247.44   1.566e-16  1.248e-16 
   3248.492   7.474e-17  1.177e-16 
   3249.544   8.918e-18  1.244e-16 
   3250.595   -1.31e-16  1.104e-16 
   3251.646   2.024e-16  1.234e-16 
   3252.698   2.367e-17  1.222e-16 
   3253.749   3.981e-16  1.306e-16 
   3254.801   2.164e-16  1.292e-16 
   3255.853   8.458e-18  1.209e-16 
   3256.906   2.258e-17  1.248e-16 
   3257.957  -9.256e-18  1.161e-16 
   3259.009   2.106e-16  1.269e-16 
   3260.061    4.11e-16  1.215e-16 
   3261.114  -8.637e-17  1.072e-16 
   3262.165   3.679e-16  1.185e-16 
   3263.218   2.018e-16  1.126e-16 
    3264.27   5.504e-17  1.038e-16 
   3265.323  -7.929e-18  1.065e-16 
   3266.374    1.91e-16  1.115e-16 
   3267.427   4.515e-16   1.15e-16 
    3268.48   1.496e-16  1.066e-16 
   3269.532   2.407e-16   1.08e-16 
   3270.585   3.364e-16  1.098e-16 
   3271.638   1.729e-16  1.024e-16 
   3272.691  -5.927e-17  1.001e-16 
   3273.743   1.887e-16  1.059e-16 
   3274.796   1.182e-16  1.039e-16 
   3275.849   1.875e-16  1.042e-16 
   3276.902   1.867e-16  1.061e-16 
   3277.955   4.275e-17  1.033e-16 
   3279.008   1.165e-16  1.044e-16 
   3280.061   1.442e-16  1.019e-16 
   3281.115   3.602e-16  1.166e-16 
   3282.167   4.538e-16   1.17e-16 
   3283.221   6.338e-17  1.046e-16 
   3284.275   4.416e-17  1.046e-16 
   3285.327  -3.414e-17   1.01e-16 
   3286.381   2.329e-16  1.154e-16 
   3287.435  -2.063e-16  9.785e-17 
   3288.489  -1.633e-16   1.06e-16 
   3289.542   2.132e-16  1.246e-16 
   3290.596   2.923e-16  1.251e-16 
    3291.65   9.439e-17  1.181e-16 
   3292.704  -1.042e-16  1.188e-16 
   3293.757   8.162e-17  1.206e-16 
   3294.811   1.345e-16   1.21e-16 
   3295.866  -1.482e-16  1.165e-16 
    3296.92    2.13e-16  1.253e-16 
   3297.973   7.148e-17  1.172e-16 
   3299.028   4.941e-17  1.176e-16 
   3300.082    1.18e-16  1.157e-16 
   3301.136   2.156e-16  1.117e-16 
    3302.19   2.869e-16  1.127e-16 
   3303.245    1.88e-16  1.075e-16 
     3304.3   1.193e-16  1.033e-16 
   3305.354   1.298e-16  9.703e-17 
   3306.408   1.006e-16  9.468e-17 
   3307.463  -3.943e-17  9.377e-17 
   3308.518  -4.168e-17  9.881e-17 
   3309.572   2.316e-16  9.997e-17 
   3310.627  -7.406e-17   8.97e-17 
   3311.682   -1.37e-16  8.758e-17 
   3312.738   1.283e-16  9.569e-17 
   3313.792   2.359e-16  9.664e-17 
   3314.847   1.835e-16  9.871e-17 
   3315.902   6.225e-17  9.051e-17 
   3316.957    5.07e-16  1.004e-16 
   3318.012   2.254e-16   9.87e-17 
   3319.068   2.708e-16  9.774e-17 
   3320.123   1.693e-16  9.027e-17 
   3321.178  -2.525e-17  8.344e-17 
   3322.234   8.706e-17  8.468e-17 
   3323.289   2.188e-16  8.901e-17 
   3324.345  -1.197e-17  8.527e-17 
     3325.4  -1.082e-17  8.134e-17 
   3326.456   1.544e-16  8.407e-17 
   3327.512   1.793e-16  8.374e-17 
   3328.567   2.168e-16  8.488e-17 
   3329.623    -9.3e-18   8.04e-17 
   3330.679   7.694e-17  8.473e-17 
   3331.735   2.395e-16  8.864e-17 
   3332.791    3.67e-16  8.865e-17 
   3333.847   3.133e-16  8.818e-17 
   3334.903   9.234e-17  7.913e-17 
    3335.96   1.586e-16   7.74e-17 
   3337.015   1.372e-16  7.786e-17 
   3338.072   1.929e-16  8.197e-17 
   3339.128   1.146e-16  8.147e-17 
   3340.185   2.545e-16  8.714e-17 
    3341.24   1.348e-16  8.575e-17 
   3342.297   2.582e-16  8.846e-17 
   3343.354   2.356e-16  9.073e-17 
    3344.41   9.313e-17  9.237e-17 
   3345.467   2.052e-16  8.866e-17 
   3346.524    3.92e-16  9.452e-17 
   3347.581   1.398e-16  8.402e-17 
   3348.637   1.841e-16  8.977e-17 
   3349.694   3.615e-16  9.473e-17 
   3350.751   1.755e-16  9.174e-17 
   3351.808   1.768e-16  9.097e-17 
   3352.864   1.524e-16   9.07e-17 
   3353.922   9.425e-17  9.019e-17 
   3354.979   1.166e-16  9.073e-17 
   3356.035   9.433e-17  8.718e-17 
   3357.093   7.727e-17  7.893e-17 
    3358.15   1.107e-16  7.311e-17 
   3359.208   2.398e-16  7.835e-17 
   3360.265   3.719e-17  7.272e-17 
   3361.322   9.224e-17  7.349e-17 
    3362.38   1.447e-16  7.945e-17 
   3363.438   7.844e-17  8.252e-17 
   3364.495   2.417e-16  8.026e-17 
   3365.553   1.506e-16  8.131e-17 
   3366.611   3.451e-16  9.296e-17 
   3367.669   4.158e-17   8.38e-17 
   3368.726   3.747e-16  9.002e-17 
   3369.784  -7.864e-17  7.916e-17 
   3370.842   1.937e-16  8.377e-17 
   3371.899    1.09e-17  8.261e-17 
   3372.958   4.644e-17  8.499e-17 
   3374.016   4.697e-17  8.538e-17 
   3375.074   2.332e-16  9.271e-17 
   3376.132   2.827e-16  9.284e-17 
    3377.19   6.662e-17  8.323e-17 
   3378.249    5.52e-18  7.458e-17 
   3379.307    2.63e-16  7.876e-17 
   3380.365   3.007e-17  7.141e-17 
   3381.424   2.203e-16  7.457e-17 
   3382.483   2.814e-16   7.68e-17 
    3383.54   5.039e-17  7.114e-17 
   3384.599   1.495e-16  7.286e-17 
   3385.658   2.646e-16  7.251e-17 
   3386.717   7.483e-17  6.786e-17 
   3387.775   7.046e-17   6.59e-17 
   3388.834   2.524e-17   6.79e-17 
   3389.893   3.474e-16  7.078e-17 
   3390.953  -2.548e-17  5.808e-17 
   3392.011   2.734e-16  6.968e-17 
    3393.07   6.334e-17  6.319e-17 
   3394.129   1.098e-16  6.606e-17 
   3395.188    8.14e-17  6.615e-17 
   3396.247   3.271e-17  6.873e-17 
   3397.307   4.327e-17  7.379e-17 
   3398.366   1.198e-16  7.513e-17 
   3399.425    1.32e-16  7.291e-17 
   3400.485   1.571e-16  7.516e-17 
   3401.544   5.509e-17  7.204e-17 
   3402.604   2.532e-17   6.83e-17 
   3403.663   7.731e-17  6.932e-17 
   3404.723   1.201e-16  7.305e-17 
   3405.783   1.408e-16  7.193e-17 
   3406.842   1.701e-16  7.302e-17 
   3407.902   1.095e-16  7.044e-17 
   3408.962   2.077e-16  7.335e-17 
   3410.022    6.15e-17  7.065e-17 
   3411.081   1.936e-16  7.027e-17 
   3412.141  -6.425e-18  6.404e-17 
   3413.202   1.082e-16   6.55e-17 
   3414.262   1.591e-16  7.047e-17 
   3415.321   2.586e-16  7.354e-17 
   3416.382   2.906e-16   7.71e-17 
   3417.442   1.229e-16  7.181e-17 
   3418.503   8.423e-17  7.139e-17 
   3419.562   2.582e-16  7.944e-17 
   3420.623    8.16e-17  7.609e-17 
   3421.684  -8.184e-17  6.819e-17 
   3422.743   5.724e-17  7.265e-17 
   3423.804  -1.298e-16  6.622e-17 
   3424.865   7.892e-17   7.25e-17 
   3425.926   1.988e-16  7.611e-17 
   3426.986   7.225e-17   7.46e-17 
   3428.047  -1.002e-16   7.06e-17 
   3429.108   1.565e-16  7.858e-17 
   3430.169   8.929e-17   7.28e-17 
   3431.229   9.665e-17  7.025e-17 
    3432.29     3.3e-16  7.595e-17 
   3433.352   6.435e-17  6.847e-17 
   3434.412  -5.762e-17  6.695e-17 
   3435.473   2.337e-16  7.018e-17 
   3436.535   2.686e-16  7.017e-17 
   3437.596   2.258e-16  6.667e-17 
   3438.657   8.412e-17   5.97e-17 
   3439.718   2.415e-16  6.051e-17 
    3440.78   1.089e-16  5.502e-17 
   3441.842   1.337e-16  5.606e-17 
   3442.902    5.21e-17  5.162e-17 
   3443.964   1.917e-16  5.777e-17 
   3445.026   1.955e-16  5.855e-17 
   3446.087   2.212e-16  6.029e-17 
   3447.149   1.929e-16  5.906e-17 
   3448.211   2.518e-16  6.395e-17 
   3449.273   1.708e-16   6.28e-17 
   3450.334   1.415e-17  5.935e-17 
   3451.396   4.684e-17  5.927e-17 
   3452.458    5.41e-17  6.026e-17 
    3453.52   5.511e-17  6.254e-17 
   3454.581   1.623e-17   6.14e-17 
   3455.644    2.19e-16  6.455e-17 
   3456.706   2.135e-16  6.417e-17 
   3457.767   1.203e-16  6.072e-17 
    3458.83   1.023e-16  5.898e-17 
   3459.892   1.003e-17   5.61e-17 
   3460.955   1.613e-16  6.036e-17 
   3462.017   2.189e-16  6.486e-17 
   3463.079   3.246e-16  6.731e-17 
   3464.142  -7.804e-17  5.764e-17 
   3465.205  -1.286e-17   5.89e-17 
   3466.266   8.647e-17  6.236e-17 
   3467.329   1.872e-16  6.454e-17 
   3468.392   2.649e-16  6.673e-17 
   3469.454    4.15e-17  6.095e-17 
   3470.517   1.394e-16  6.126e-17 
    3471.58   2.488e-17  5.824e-17 
   3472.643    7.71e-17  5.741e-17 
   3473.705   1.598e-16  5.788e-17 
   3474.769   1.073e-16  5.693e-17 
   3475.832   1.789e-16  5.925e-17 
   3476.895   5.446e-17  5.909e-17 
   3477.957   2.077e-16  6.419e-17 
   3479.021   9.706e-17  6.391e-17 
   3480.084   2.127e-16  6.693e-17 
   3481.147   1.426e-16  6.412e-17 
    3482.21   1.074e-16   6.43e-17 
   3483.274   1.302e-16  6.349e-17 
   3484.338   1.577e-16  6.447e-17 
     3485.4   2.616e-16  6.708e-17 
   3486.464  -7.163e-17  5.808e-17 
   3487.528   1.258e-16  6.048e-17 
   3488.592   1.105e-16  5.754e-17 
   3489.654   3.374e-17  5.223e-17 
   3490.718   1.157e-16  5.537e-17 
   3491.782   1.935e-16  5.965e-17 
   3492.845   9.408e-17  5.351e-17 
   3493.909   1.178e-16   5.35e-17 
   3494.974   1.242e-16  5.283e-17 
   3496.038   4.233e-17  5.057e-17 
   3497.101   1.198e-16  5.153e-17 
   3498.165   8.624e-17  5.168e-17 
   3499.229   1.074e-16  5.519e-17 
   3500.294   1.259e-16  5.413e-17 
   3501.357   1.492e-16  5.493e-17 
   3502.422   4.802e-17  5.227e-17 
   3503.486    2.14e-16  5.517e-17 
    3504.55   1.122e-16  5.131e-17 
   3505.614   9.837e-17  5.063e-17 
   3506.679   1.827e-17  4.814e-17 
   3507.744   1.128e-16  4.993e-17 
   3508.807    9.57e-17  4.839e-17 
   3509.872   5.415e-17  4.667e-17 
   3510.937   1.263e-16  4.687e-17 
   3512.002   1.392e-16  4.623e-17 
   3513.066   1.434e-16  4.535e-17 
   3514.131   1.065e-16  4.477e-17 
   3515.196   1.438e-16  4.666e-17 
    3516.26   1.465e-16  4.907e-17 
   3517.325   1.044e-16  4.765e-17 
    3518.39   1.456e-16  4.853e-17 
   3519.455   6.671e-17  4.762e-17 
    3520.52   1.076e-16  4.732e-17 
   3521.585    7.22e-17  4.541e-17 
    3522.65   9.181e-17  4.423e-17 
   3523.716   1.416e-16  4.458e-17 
    3524.78   1.214e-16  4.528e-17 
   3525.846   4.993e-17   4.41e-17 
   3526.911   1.564e-16  4.878e-17 
   3527.976   8.124e-17  4.962e-17 
   3529.041   4.595e-17  4.874e-17 
   3530.107   8.851e-17  5.222e-17 
   3531.173   1.592e-16  5.398e-17 
   3532.237   2.499e-16  5.529e-17 
   3533.303   1.809e-16  5.537e-17 
   3534.369   1.188e-16  5.444e-17 
   3535.435   1.816e-16  5.617e-17 
     3536.5   3.331e-17  5.464e-17 
   3537.566   1.425e-16  5.606e-17 
   3538.632   1.088e-16  5.615e-17 
   3539.697   3.448e-17  5.608e-17 
   3540.763   1.586e-16  5.701e-17 
   3541.829   2.331e-16  6.014e-17 
   3542.896   5.544e-17  5.896e-17 
   3543.961   1.702e-16  6.074e-17 
   3545.027   4.505e-17   5.77e-17 
   3546.094   2.694e-16  6.265e-17 
   3547.159   7.443e-17  5.879e-17 
   3548.226   1.433e-16  5.983e-17 
   3549.292   1.012e-16  5.847e-17 
   3550.359   1.405e-16  5.837e-17 
   3551.424   8.494e-17  5.461e-17 
   3552.491    1.38e-16  5.613e-17 
   3553.558   2.459e-16  5.862e-17 
   3554.624   1.516e-16  5.604e-17 
    3555.69   1.623e-16  5.583e-17 
   3556.757   1.621e-16   5.47e-17 
   3557.824   7.976e-17  5.242e-17 
    3558.89   1.574e-16  5.487e-17 
   3559.957   1.521e-16  5.407e-17 
   3561.024   1.974e-16  5.614e-17 
   3562.091   2.765e-16  5.574e-17 
   3563.157   2.052e-16  5.051e-17 
   3564.224   1.103e-16  4.765e-17 
   3565.291   1.719e-16  4.714e-17 
   3566.358   1.124e-16  4.423e-17 
   3567.425   1.661e-16  4.474e-17 
   3568.492   2.181e-16  4.485e-17 
   3569.559   2.533e-16  4.444e-17 
   3570.626   4.719e-17  4.072e-17 
   3571.693   1.399e-16  4.476e-17 
   3572.761   1.742e-16  4.436e-17 
   3573.828   1.538e-16  4.391e-17 
   3574.895   2.373e-16  4.529e-17 
   3575.962   2.025e-16  4.423e-17 
    3577.03   1.901e-16  4.319e-17 
   3578.098   2.694e-16  4.198e-17 
   3579.165   1.389e-16  3.832e-17 
   3580.232   1.809e-16  3.739e-17 
     3581.3   1.438e-16  3.593e-17 
   3582.367    1.71e-16  3.811e-17 
   3583.435   1.194e-16  3.567e-17 
   3584.503   1.065e-16  3.483e-17 
   3585.571   2.148e-16  3.773e-17 
   3586.638   1.498e-16  3.705e-17 
   3587.706   2.182e-16  4.207e-17 
   3588.775   1.457e-16  4.251e-17 
   3589.842   1.267e-16  4.329e-17 
    3590.91   1.653e-16  4.474e-17 
   3591.978   1.619e-16  4.592e-17 
   3593.047   2.379e-16  4.744e-17 
   3594.114   8.622e-17  4.525e-17 
   3595.182   3.154e-16  5.003e-17 
   3596.251   2.031e-16  4.937e-17 
   3597.319   2.069e-16  5.016e-17 
   3598.387   8.825e-17  4.816e-17 
   3599.456   1.754e-16  5.035e-17 
   3600.524   2.665e-16   4.99e-17 
   3601.592   1.631e-16  4.588e-17 
   3602.661   1.281e-16  4.407e-17 
   3603.729   1.613e-16  4.481e-17 
   3604.798   1.671e-16  4.413e-17 
   3605.866   8.491e-17  4.311e-17 
   3606.935   2.179e-16  4.329e-17 
   3608.004   1.941e-16  4.225e-17 
   3609.073   2.081e-16  4.305e-17 
   3610.141   1.564e-16  4.292e-17 
    3611.21   1.251e-16  4.324e-17 
   3612.279   1.562e-16  4.548e-17 
   3613.347    1.83e-16  4.669e-17 
   3614.417    1.46e-16  4.758e-17 
   3615.486   1.473e-16  4.738e-17 
   3616.555   3.532e-17  4.207e-17 
   3617.623   1.239e-16  4.355e-17 
   3618.693   1.691e-16  4.384e-17 
   3619.762   2.248e-16  4.618e-17 
   3620.831   1.853e-16  4.743e-17 
     3621.9   1.693e-16  4.884e-17 
    3622.97   2.131e-16  5.045e-17 
   3624.039   8.185e-17  5.032e-17 
   3625.108   2.568e-16  5.379e-17 
   3626.178   2.047e-16  5.297e-17 
   3627.247   2.809e-16  5.435e-17 
   3628.317   1.594e-16  5.049e-17 
   3629.386   1.649e-16  4.866e-17 
   3630.456   1.581e-16  4.625e-17 
   3631.526   1.155e-16   4.64e-17 
   3632.595   1.611e-16  4.708e-17 
   3633.665    1.23e-16  4.594e-17 
   3634.735   1.686e-16   4.75e-17 
   3635.805    1.73e-16  4.723e-17 
   3636.874   1.713e-16  4.847e-17 
   3637.944   1.344e-16  4.919e-17 
   3639.014   1.179e-16   4.71e-17 
   3640.084   1.216e-16  4.754e-17 
   3641.154    1.04e-16  4.587e-17 
   3642.224   1.446e-16  4.591e-17 
   3643.294   1.622e-16  4.454e-17 
   3644.364   1.394e-16  4.406e-17 
   3645.434   1.764e-16  4.349e-17 
   3646.505   1.316e-16  4.276e-17 
   3647.575   1.461e-16  4.442e-17 
   3648.645    1.36e-16    4.7e-17 
   3649.715   3.484e-17   4.61e-17 
   3650.786   8.169e-17  4.675e-17 
   3651.856  -1.378e-19   4.49e-17 
   3652.926   4.214e-17  4.534e-17 
   3653.997   2.609e-16  4.874e-17 
   3655.068   1.703e-16  4.737e-17 
   3656.138   2.106e-16  4.677e-17 
   3657.209   5.717e-17  4.431e-17 
   3658.279   2.298e-16  4.691e-17 
    3659.35   1.646e-16  4.585e-17 
    3660.42   3.753e-17  4.401e-17 
   3661.492   1.575e-16    4.5e-17 
   3662.563   2.014e-16  4.574e-17 
   3663.633   8.277e-17  4.195e-17 
   3664.704   7.233e-17  4.172e-17 
   3665.775   1.636e-16  4.235e-17 
   3666.846   5.201e-17  3.962e-17 
   3667.917   1.652e-16  4.203e-17 
   3668.988   5.731e-17  3.848e-17 
   3670.059   2.521e-17  3.895e-17 
