# STATUS =
# OBJECT = 2019zbv
# TELESCOPE = P200
# INSTRUMENT = SEDM
# DATE-OBS = 2020-02-02 00:00:00.000
# MJD = 58881.0
# EXPTIME =
# AIRMASS =
# SLIT =
# DISPERSER =
# SOURCE = DOI 10.3847/1538-4357/aca161
# FILTER =
# RESOLUTION =
# FLUX_STANDARD =
# EXTINCTION_CORRECTED =
# PHOTOMETRY_CALIBRATED =
# TELLURIC_CORRECTED =
# FLUX_UNITS =
# WAVE_UNITS =
# QUALITY =
# MIN_WAVE = 3300.0
# MAX_WAVE = 9698.907
# COMMENT =
 Wavelength         Flux 
   3301.535   6.2478e-17 
    3303.07   1.0429e-16 
   3304.605   9.1734e-17 
   3306.139   9.9174e-17 
   3307.674   1.8597e-17 
   3309.209   9.3341e-17 
   3310.744   6.0066e-17 
   3312.279   3.4753e-17 
   3313.814   2.2241e-17 
   3315.349   5.2799e-17 
   3316.884   4.0662e-17 
   3318.418   8.4265e-17 
   3319.953   5.6271e-17 
   3321.488  -2.2779e-18 
   3323.023   2.0342e-17 
   3324.558   9.4884e-17 
   3326.093   6.6273e-17 
   3327.628   8.2851e-17 
   3329.163   1.4272e-16 
   3330.698   1.0249e-16 
   3332.232   1.2037e-16 
   3333.767   8.3719e-17 
   3335.302   7.4137e-17 
   3336.837   6.4166e-17 
   3338.372    1.216e-16 
   3339.907   7.2179e-17 
   3341.442   8.7423e-17 
   3342.977   6.9746e-17 
   3344.511   1.2609e-16 
   3346.046   1.0132e-16 
   3347.581   6.1222e-17 
   3349.116    3.885e-17 
   3350.651   9.2396e-17 
   3352.186    5.316e-17 
   3353.721   1.0509e-16 
   3355.256   1.0609e-16 
   3356.791   3.1988e-17 
   3358.325    4.732e-17 
    3359.86   3.0945e-17 
   3361.395   2.5569e-18 
    3362.93   3.4195e-17 
   3364.465   5.7925e-17 
     3366.0   4.8851e-17 
   3367.535   3.0769e-17 
    3369.07   5.5799e-17 
   3370.604   9.9921e-17 
   3372.139   5.3732e-17 
   3373.674   2.8999e-17 
   3375.209   4.4693e-17 
   3376.744   5.8199e-17 
   3378.279   7.9034e-17 
   3379.814   6.9466e-17 
   3381.349   5.1268e-17 
   3382.884  -8.8503e-18 
   3384.418    8.774e-17 
   3385.953   1.2147e-16 
   3387.488   8.5168e-17 
   3389.023   1.0387e-16 
   3390.558   6.5029e-17 
   3392.093   2.8971e-17 
   3393.628   8.6642e-17 
   3395.162   1.1127e-16 
   3396.697   6.1329e-17 
   3398.232   7.7679e-17 
   3399.767   6.6633e-17 
   3401.302   5.5631e-17 
   3402.837   6.3802e-17 
   3404.372   4.0493e-17 
   3405.906   4.4265e-17 
   3407.441   2.6403e-17 
   3408.976   5.8761e-17 
   3410.511   5.7066e-17 
   3412.046   7.2661e-17 
   3413.581   5.5173e-17 
   3415.116   4.0152e-17 
   3416.651   5.6071e-17 
   3418.186   3.2552e-17 
    3419.72   2.7069e-17 
   3421.255   3.1261e-17 
    3422.79   6.6554e-18 
   3424.325   3.1536e-17 
    3425.86    4.486e-17 
   3427.395   7.3239e-17 
    3428.93   6.1568e-17 
   3430.465   5.0758e-17 
     3432.0   8.7343e-17 
   3433.534   5.1545e-17 
   3435.069   6.5557e-17 
   3436.604   6.5592e-17 
   3438.139   3.4175e-17 
   3439.674   2.9708e-17 
   3441.209   3.3299e-17 
   3442.744   5.6312e-17 
   3444.279   6.2185e-17 
   3445.813   5.9771e-17 
   3447.348   3.5181e-17 
   3448.883   4.3365e-17 
   3450.418   5.1048e-17 
   3451.953   5.2684e-17 
   3453.488   4.7149e-17 
   3455.023   4.7179e-17 
   3456.558   7.5556e-17 
   3458.093   6.3391e-17 
   3459.627   5.3814e-17 
   3461.162   7.5923e-17 
   3462.697   8.1667e-17 
   3464.232   6.5817e-17 
   3465.767   7.0289e-17 
   3467.302   5.3784e-17 
   3468.837    3.358e-17 
   3470.372   9.0173e-17 
   3471.906   7.2048e-17 
   3473.441   5.8663e-17 
   3474.976   6.6247e-17 
   3476.511   7.2685e-17 
   3478.046   7.8222e-17 
   3479.581   5.1312e-17 
   3481.116   8.9085e-17 
   3482.651   7.5758e-17 
   3484.185   4.4107e-17 
    3485.72   3.2649e-17 
   3487.255   7.5591e-17 
    3488.79   1.1757e-16 
   3490.325   3.8659e-17 
    3491.86   5.8014e-17 
   3493.395   7.4652e-17 
   3494.929   5.4321e-17 
   3496.464    5.965e-17 
   3497.999   8.2032e-17 
   3499.534    7.374e-17 
   3501.069   5.9843e-17 
   3502.604   6.4182e-17 
   3504.139    6.106e-17 
   3505.674   9.4069e-17 
   3507.208   7.5056e-17 
   3508.743   6.7898e-17 
   3510.278   7.3893e-17 
   3511.813   6.3202e-17 
   3513.348   7.7778e-17 
   3514.883   8.4092e-17 
   3516.418   6.5827e-17 
   3517.953   6.7467e-17 
   3519.488   6.3952e-17 
   3521.022   7.5503e-17 
   3522.557   6.9745e-17 
   3524.092   8.7818e-17 
   3525.627   9.4975e-17 
   3527.162    6.236e-17 
   3528.697   4.7667e-17 
   3530.232   6.9307e-17 
   3531.767   7.4572e-17 
   3533.302   6.7987e-17 
   3534.836    6.781e-17 
   3536.371   7.3199e-17 
   3537.906   6.9137e-17 
   3539.441   7.3555e-17 
   3540.976   5.4864e-17 
   3542.511   6.0337e-17 
   3544.046   1.0239e-16 
   3545.581   6.7827e-17 
   3547.115    6.782e-17 
    3548.65   7.3058e-17 
   3550.185    5.389e-17 
    3551.72   6.6037e-17 
   3553.255   3.7587e-17 
    3554.79   5.8929e-17 
   3556.325   6.8493e-17 
    3557.86   5.9875e-17 
   3559.395   6.5793e-17 
   3560.929   8.4798e-17 
   3562.464   6.4955e-17 
   3563.999   3.9035e-17 
   3565.534   6.6168e-17 
   3567.069   7.4315e-17 
   3568.604   3.7244e-17 
   3570.139   5.1068e-17 
   3571.674   5.1984e-17 
   3573.208    4.895e-17 
   3574.743   4.4429e-17 
   3576.278   3.9713e-17 
   3577.813   6.1245e-17 
   3579.348    6.294e-17 
   3580.883    3.636e-17 
   3582.418   2.0506e-17 
   3583.952   5.9377e-17 
   3585.487   5.9658e-17 
   3587.022   5.2122e-17 
   3588.557   4.9012e-17 
   3590.092   5.0383e-17 
   3591.627   5.0545e-17 
   3593.162   6.6359e-17 
   3594.697   3.6722e-17 
   3596.231   3.6239e-17 
   3597.766    5.333e-17 
   3599.301    3.662e-17 
   3600.836   4.2967e-17 
   3602.371   4.9654e-17 
   3603.906   5.7046e-17 
   3605.441   4.1649e-17 
   3606.976   4.2227e-17 
    3608.51   3.9679e-17 
   3610.045   4.3909e-17 
    3611.58   5.4334e-17 
   3613.115   3.8278e-17 
    3614.65   3.0146e-17 
   3616.185   4.9709e-17 
    3617.72   4.1685e-17 
   3619.255   3.4452e-17 
    3620.79   3.6434e-17 
   3622.324   3.7284e-17 
   3623.859   3.1039e-17 
   3625.394   3.6578e-17 
   3626.929   3.8634e-17 
   3628.464   3.0386e-17 
   3629.999   1.6549e-17 
   3631.534   2.8748e-17 
   3633.069   1.5429e-17 
   3634.604   1.6358e-17 
   3636.138   2.9312e-17 
   3637.673   4.6829e-17 
   3639.208   5.2331e-17 
   3640.743   2.5651e-17 
   3642.278   4.5466e-17 
   3643.813   3.6114e-17 
   3645.348   2.2895e-17 
   3646.883   3.7397e-17 
   3648.417   1.8684e-17 
   3649.952   3.1548e-17 
   3651.487   2.4835e-17 
   3653.022   4.3328e-17 
   3654.557   2.0426e-17 
   3656.092    3.233e-17 
   3657.627   4.9121e-17 
   3659.162   1.9233e-17 
   3660.696   3.7083e-17 
   3662.231   3.1095e-17 
   3663.766   2.7987e-17 
   3665.301   2.9909e-17 
   3666.836   2.2695e-17 
   3668.371   2.8727e-17 
   3669.906   2.1469e-17 
   3671.441    3.031e-17 
   3672.975   3.5382e-17 
    3674.51   2.8539e-17 
   3676.045   3.2451e-17 
    3677.58   3.7921e-17 
   3679.115   2.7177e-17 
    3680.65   2.8053e-17 
   3682.185   3.7008e-17 
   3683.719   2.5674e-17 
   3685.254   3.9606e-17 
   3686.789   3.8537e-17 
   3688.324   2.5595e-17 
   3689.859   3.3719e-17 
   3691.394   3.8508e-17 
   3692.929    2.588e-17 
   3694.464   2.4521e-17 
   3695.999   3.7589e-17 
   3697.533   4.9265e-17 
   3699.068   4.9113e-17 
   3700.603   4.4967e-17 
   3702.138   5.2253e-17 
   3703.673   5.4847e-17 
   3705.208   4.9665e-17 
   3706.743   2.8379e-17 
   3708.278   3.6783e-17 
   3709.812   5.4064e-17 
   3711.347    3.999e-17 
   3712.882   3.7783e-17 
   3714.417   4.1951e-17 
   3715.952   4.3531e-17 
   3717.487   5.3141e-17 
   3719.022   5.2605e-17 
   3720.557   5.4433e-17 
   3722.092   3.8902e-17 
   3723.626   4.1793e-17 
   3725.161   5.1254e-17 
   3726.696   5.2908e-17 
   3728.231   4.3246e-17 
   3729.766   5.4054e-17 
   3731.301   6.6698e-17 
   3732.836   6.6973e-17 
   3734.371   6.4335e-17 
   3735.906   5.4394e-17 
    3737.44   4.7071e-17 
   3738.975   4.9872e-17 
    3740.51   5.7831e-17 
   3742.045   6.5886e-17 
    3743.58   5.9937e-17 
   3745.115   6.5989e-17 
    3746.65   6.4699e-17 
   3748.185   5.2601e-17 
   3749.719   7.2772e-17 
   3751.254   7.7681e-17 
   3752.789   7.6175e-17 
   3754.324   7.1792e-17 
   3755.859    6.824e-17 
   3757.394   7.0607e-17 
   3758.929   8.2698e-17 
   3760.463   6.9702e-17 
   3761.998    6.463e-17 
   3763.533   6.8464e-17 
   3765.068   7.4028e-17 
   3766.603   7.8579e-17 
   3768.138   7.2857e-17 
   3769.673   7.6715e-17 
   3771.208   9.1779e-17 
   3772.742   9.5449e-17 
   3774.277   9.2061e-17 
   3775.812   9.9091e-17 
   3777.347   9.3751e-17 
   3778.882   9.0926e-17 
   3780.417   7.4275e-17 
   3781.952   8.7907e-17 
   3783.487   9.1936e-17 
   3785.021   8.9147e-17 
   3786.556   9.9834e-17 
   3788.091   1.0103e-16 
   3789.626   8.9162e-17 
   3791.161   9.7997e-17 
   3792.696    1.029e-16 
   3794.231   9.8215e-17 
   3795.766   9.4662e-17 
   3797.301   1.1163e-16 
   3798.835   1.0195e-16 
    3800.37   9.2865e-17 
   3801.905   9.6927e-17 
    3803.44   1.0198e-16 
   3804.975   1.1399e-16 
    3806.51   1.0899e-16 
   3808.045   1.0567e-16 
    3809.58   1.0166e-16 
   3811.115   9.4444e-17 
   3812.649   1.0146e-16 
   3814.184    1.075e-16 
   3815.719   1.0728e-16 
   3817.254   1.0306e-16 
   3818.789   1.1061e-16 
   3820.324   9.4337e-17 
   3821.859   9.4806e-17 
   3823.394   1.1155e-16 
   3824.928   1.0694e-16 
   3826.463    1.024e-16 
   3827.998   9.7271e-17 
   3829.533   9.8216e-17 
   3831.068    1.115e-16 
   3832.603   1.1905e-16 
   3834.138   1.2182e-16 
   3835.673   1.2874e-16 
   3837.208   1.2852e-16 
   3838.742   1.1925e-16 
   3840.277   1.1466e-16 
   3841.812   1.1748e-16 
   3843.347   1.2453e-16 
   3844.882   1.2205e-16 
   3846.417   1.1862e-16 
   3847.952   1.0141e-16 
   3849.486   1.1069e-16 
   3851.021   1.1809e-16 
   3852.556   9.4057e-17 
   3854.091   8.0169e-17 
   3855.626   9.8552e-17 
   3857.161   1.0674e-16 
   3858.696   1.0465e-16 
    3860.23   1.1133e-16 
   3861.765   7.8235e-17 
     3863.3   8.0604e-17 
   3864.835   9.4458e-17 
    3866.37   1.1039e-16 
   3867.905    1.103e-16 
    3869.44   1.0154e-16 
   3870.975   1.0795e-16 
    3872.51   1.0737e-16 
   3874.044   1.0328e-16 
   3875.579   1.0325e-16 
   3877.114   1.0851e-16 
   3878.649    1.055e-16 
   3880.184   1.0765e-16 
   3881.719   1.1579e-16 
   3883.254    1.077e-16 
   3884.789   1.1007e-16 
   3886.323   1.0376e-16 
   3887.858   1.0831e-16 
   3889.393   9.7272e-17 
   3890.928   1.0048e-16 
   3892.463   9.4648e-17 
   3893.998   1.0547e-16 
   3895.533   1.0295e-16 
   3897.068   1.0866e-16 
   3898.603   1.1882e-16 
   3900.137    1.113e-16 
   3901.672   9.5097e-17 
   3903.207   1.0016e-16 
   3904.742   9.6146e-17 
   3906.277   9.3106e-17 
   3907.812   1.0567e-16 
   3909.347   1.1108e-16 
   3910.882   1.0551e-16 
   3912.417   1.0294e-16 
   3913.951   8.3377e-17 
   3915.486   8.5554e-17 
   3917.021    8.529e-17 
   3918.556   1.0236e-16 
   3920.091   9.4597e-17 
   3921.626   9.7456e-17 
   3923.161   9.6265e-17 
   3924.696   9.0478e-17 
    3926.23   8.9659e-17 
   3927.765   9.6805e-17 
     3929.3   7.4961e-17 
   3930.835   6.9193e-17 
    3932.37   9.5532e-17 
   3933.905   9.3028e-17 
    3935.44   8.9087e-17 
   3936.975   9.8441e-17 
   3938.509   1.2294e-16 
   3940.044   1.0333e-16 
   3941.579   9.9958e-17 
   3943.114   1.1006e-16 
   3944.649    1.069e-16 
   3946.184   1.1195e-16 
   3947.719   1.0411e-16 
   3949.253   8.9342e-17 
   3950.788   1.0199e-16 
   3952.323   1.0885e-16 
   3953.858   1.0415e-16 
   3955.393    1.043e-16 
   3956.928    1.014e-16 
   3958.463   9.3614e-17 
   3959.998   9.5972e-17 
   3961.532   9.2952e-17 
   3963.067   1.0422e-16 
   3964.602   1.1288e-16 
   3966.137   1.0909e-16 
   3967.672   9.3799e-17 
   3969.207    1.019e-16 
   3970.742   9.6474e-17 
   3972.277   1.0092e-16 
   3973.812   1.0692e-16 
   3975.346   9.7809e-17 
   3976.881    1.026e-16 
   3978.416   1.1915e-16 
   3979.951    1.041e-16 
   3981.486   1.0473e-16 
   3983.021   1.0671e-16 
   3984.556   1.0976e-16 
   3986.091   1.1263e-16 
   3987.625   9.7589e-17 
    3989.16   1.0167e-16 
   3990.695   1.0405e-16 
    3992.23   1.0803e-16 
   3993.765   1.0875e-16 
     3995.3   1.0837e-16 
   3996.835    1.179e-16 
    3998.37   1.0581e-16 
   3999.905   1.1299e-16 
   4001.439   1.1599e-16 
   4002.974   9.7559e-17 
   4004.509   1.1919e-16 
   4006.044   1.0912e-16 
   4007.579   1.0696e-16 
   4009.114   1.0035e-16 
   4010.649   1.1362e-16 
   4012.184   1.1521e-16 
   4013.719    1.136e-16 
   4015.253   1.0543e-16 
   4016.788   1.1965e-16 
   4018.323    1.142e-16 
   4019.858   1.0262e-16 
   4021.393   1.0688e-16 
   4022.928   1.0637e-16 
   4024.463   1.1282e-16 
   4025.998   1.0079e-16 
   4027.532   1.2517e-16 
   4029.067   1.2207e-16 
   4030.602   1.1069e-16 
   4032.137   1.1192e-16 
   4033.672   1.1448e-16 
   4035.207   1.2501e-16 
   4036.742   1.2276e-16 
   4038.276   1.1331e-16 
   4039.811   1.1753e-16 
   4041.346   1.1039e-16 
   4042.881   1.1151e-16 
   4044.416   1.1358e-16 
   4045.951   1.1666e-16 
   4047.486   1.0427e-16 
   4049.021   1.1118e-16 
   4050.555   1.1671e-16 
    4052.09   1.0956e-16 
   4053.625   1.1356e-16 
    4055.16   1.2145e-16 
   4056.695   1.2402e-16 
    4058.23   1.1997e-16 
   4059.765   1.1237e-16 
     4061.3   1.1339e-16 
   4062.834   1.1251e-16 
   4064.369   1.1103e-16 
   4065.904   1.1297e-16 
   4067.439   1.2268e-16 
   4068.974   1.2943e-16 
   4070.509    1.254e-16 
   4072.044   1.1829e-16 
   4073.579   1.1791e-16 
   4075.114    1.253e-16 
   4076.648   1.2174e-16 
   4078.183   1.1202e-16 
   4079.718   1.1118e-16 
   4081.253   1.0577e-16 
   4082.788   1.1069e-16 
   4084.323   1.1863e-16 
   4085.858   1.1803e-16 
   4087.393    1.234e-16 
   4088.927   1.1949e-16 
   4090.462   1.0376e-16 
   4091.997   1.0933e-16 
   4093.532   1.1552e-16 
   4095.067   1.1332e-16 
   4096.602     1.04e-16 
   4098.137   9.9307e-17 
   4099.671   1.1407e-16 
   4101.207   1.1383e-16 
   4102.741   1.0654e-16 
   4104.276   1.0897e-16 
   4105.811   1.0357e-16 
   4107.346   1.0244e-16 
   4108.881    1.005e-16 
   4110.416   1.0302e-16 
   4111.951    1.034e-16 
   4113.485   9.6108e-17 
   4115.021   1.0893e-16 
   4116.555   1.0404e-16 
    4118.09   9.8791e-17 
   4119.625   9.8268e-17 
    4121.16   1.0225e-16 
   4122.695   1.0554e-16 
   4124.229   9.8327e-17 
   4125.765   9.8566e-17 
   4127.299   1.1499e-16 
   4128.834   1.0156e-16 
   4130.369   8.5885e-17 
   4131.904   9.5042e-17 
   4133.439   9.7539e-17 
   4134.974   9.2429e-17 
   4136.509   8.7018e-17 
   4138.043   9.0312e-17 
   4139.579   8.4647e-17 
   4141.113   8.3164e-17 
   4142.648   1.0079e-16 
   4144.183   9.3292e-17 
   4145.718    9.147e-17 
   4147.253   9.0468e-17 
   4148.788   9.3615e-17 
   4150.323   9.3102e-17 
   4151.857   8.7905e-17 
   4153.393   9.7477e-17 
   4154.927   8.8433e-17 
   4156.462   8.4253e-17 
   4157.997   8.6948e-17 
   4159.532    8.575e-17 
   4161.067   9.6161e-17 
   4162.602   1.0738e-16 
   4164.137   9.3581e-17 
   4165.671   9.5038e-17 
   4167.206   9.6801e-17 
   4168.741   9.1421e-17 
   4170.276   9.0186e-17 
   4171.811   9.3118e-17 
   4173.346   9.3859e-17 
   4174.881   9.5285e-17 
   4176.416    9.576e-17 
    4177.95   1.0251e-16 
   4179.485   9.5136e-17 
    4181.02   9.7617e-17 
   4182.555   9.8198e-17 
    4184.09   9.0342e-17 
   4185.625   9.3292e-17 
    4187.16   9.3505e-17 
   4188.694   8.7203e-17 
   4190.229    9.033e-17 
   4191.764   9.4596e-17 
   4193.299   9.7645e-17 
   4194.834   9.6387e-17 
   4196.369   9.7081e-17 
   4197.904   9.1005e-17 
   4199.438   9.7302e-17 
   4200.974   9.2819e-17 
   4202.508   8.4797e-17 
   4204.043   9.1508e-17 
   4205.578   9.2339e-17 
   4207.113   9.0047e-17 
   4208.648   8.9266e-17 
   4210.183   9.9624e-17 
   4211.718   9.5885e-17 
   4213.252   9.5555e-17 
   4214.788   9.4938e-17 
   4216.322   8.9123e-17 
   4217.857   8.9932e-17 
   4219.392   8.9587e-17 
   4220.927   8.6918e-17 
   4222.462   9.1713e-17 
   4223.997    9.941e-17 
   4225.532   8.7555e-17 
   4227.066   8.5736e-17 
   4228.602   9.0284e-17 
   4230.136   8.4769e-17 
   4231.671   9.0288e-17 
   4233.206   8.4467e-17 
   4234.741   8.6444e-17 
   4236.276   9.6726e-17 
   4237.811   9.6181e-17 
   4239.346   8.9556e-17 
    4240.88   9.1551e-17 
   4242.416    8.825e-17 
    4243.95   8.8798e-17 
   4245.485   9.8767e-17 
    4247.02    9.418e-17 
   4248.555   9.0426e-17 
    4250.09   9.1606e-17 
   4251.625    8.906e-17 
    4253.16    9.297e-17 
   4254.694   1.0059e-16 
   4256.229   9.8346e-17 
   4257.764   9.7517e-17 
   4259.299   9.6603e-17 
   4260.834   9.0425e-17 
   4262.369   9.7658e-17 
   4263.904   8.7732e-17 
   4265.438   8.1621e-17 
   4266.973   9.4094e-17 
   4268.508   9.6285e-17 
   4270.043   9.5264e-17 
   4271.578   9.8022e-17 
   4273.113   9.4786e-17 
   4274.648   9.4619e-17 
   4276.183    9.051e-17 
   4277.717   9.3617e-17 
   4279.252   9.5252e-17 
   4280.787   9.6067e-17 
   4282.322   8.6327e-17 
   4283.857   8.9533e-17 
   4285.392   9.2252e-17 
   4286.927    9.523e-17 
   4288.461   8.3476e-17 
   4289.997   8.9077e-17 
   4291.531   9.2289e-17 
   4293.066   1.0005e-16 
   4294.601   9.2688e-17 
   4296.136   9.1876e-17 
   4297.671   9.9657e-17 
   4299.206   9.8643e-17 
   4300.741   9.6662e-17 
   4302.275   8.4936e-17 
   4303.811   8.8941e-17 
   4305.345    9.366e-17 
    4306.88   9.2861e-17 
   4308.415   9.1247e-17 
    4309.95   9.3922e-17 
   4311.485   9.3919e-17 
    4313.02     9.36e-17 
   4314.555   9.5566e-17 
   4316.089   9.3658e-17 
   4317.625   9.7318e-17 
   4319.159   9.3956e-17 
   4320.694   9.7525e-17 
   4322.229   1.0369e-16 
   4323.764   1.0489e-16 
   4325.299   9.5745e-17 
   4326.833   9.4375e-17 
   4328.369   9.9747e-17 
   4329.903   9.8207e-17 
   4331.438   9.7353e-17 
   4332.973   9.8917e-17 
   4334.508   1.0131e-16 
   4336.043   1.0105e-16 
   4337.578   1.0512e-16 
   4339.113    1.001e-16 
   4340.647   9.6074e-17 
   4342.183   9.1539e-17 
   4343.717   9.1139e-17 
   4345.252   8.9488e-17 
   4346.787    9.887e-17 
   4348.322   9.1805e-17 
   4349.857   9.3052e-17 
   4351.392    9.233e-17 
   4352.927   8.7666e-17 
   4354.461   8.6449e-17 
   4355.996   8.5657e-17 
   4357.531   9.6358e-17 
   4359.066   9.8702e-17 
   4360.601   9.9963e-17 
   4362.136   9.5128e-17 
   4363.671   1.0386e-16 
   4365.206   8.8053e-17 
    4366.74   8.9452e-17 
   4368.275   1.0158e-16 
    4369.81   1.0146e-16 
   4371.345   1.0111e-16 
    4372.88   9.4617e-17 
   4374.415   8.4607e-17 
    4375.95   9.1174e-17 
   4377.484   9.8398e-17 
    4379.02   9.9625e-17 
   4380.554   1.0051e-16 
   4382.089   8.8853e-17 
   4383.624   9.8037e-17 
   4385.159   9.9015e-17 
   4386.694   9.1486e-17 
   4388.229   8.9884e-17 
   4389.764   1.0045e-16 
   4391.298   9.4431e-17 
   4392.833   9.7861e-17 
   4394.368   9.3334e-17 
   4395.903   1.0511e-16 
   4397.438   1.0096e-16 
   4398.973   8.6826e-17 
   4400.508   9.1218e-17 
   4402.042   9.0259e-17 
   4403.578    9.656e-17 
   4405.112   9.6682e-17 
   4406.647   9.4472e-17 
   4408.182   9.3036e-17 
   4409.717   8.8358e-17 
   4411.252   8.8065e-17 
   4412.787   9.5706e-17 
   4414.322   9.4801e-17 
   4415.856   1.0274e-16 
   4417.392   1.0155e-16 
   4418.926   8.5635e-17 
   4420.461    8.833e-17 
   4421.996   8.9091e-17 
   4423.531     8.83e-17 
   4425.066     9.62e-17 
   4426.601   9.8043e-17 
   4428.136   9.3495e-17 
    4429.67   7.9831e-17 
   4431.205   9.1454e-17 
    4432.74   8.7806e-17 
   4434.275   8.4287e-17 
    4435.81   7.7886e-17 
   4437.345    8.205e-17 
    4438.88   9.1859e-17 
   4440.415   1.0019e-16 
    4441.95    8.678e-17 
   4443.484   8.7327e-17 
   4445.019   9.6367e-17 
   4446.554   8.8235e-17 
   4448.089   8.9055e-17 
   4449.624   8.8021e-17 
   4451.159   8.9591e-17 
   4452.694   8.9008e-17 
